         ID: 

    Comment: 

Scan Type: Normal
Start Angle: 15 deg.
Stop Angle: 90 deg.
Num Points: 3751
Step Size: 0.02 deg.
Datafile Res: 1600 
Scan Rate: 1.000000
Scan Mode: Continuous
Wavelength: 1.540562

Diffractometer Optics:
		Detector:
			 Type: Fixed Slits
			 X2 Configuration: No
		Tube: 
			 Type: Fixed Slits
			 X2 Configuration: No


Axis[0]
	 Selected   : no 
	 Iterative  : no 
	 Start Angle: 0.000000 
	 Stop Angle : 0.000000 
	 Step Size  : 0.000000 
	 Oscillating: no 

Axis[1]
	 Selected   : no 
	 Iterative  : no 
	 Start Angle: 0.000000 
	 Stop Angle : 0.000000 
	 Step Size  : 0.000000 
	 Oscillating: no 

Axis[2]
	 Selected   : no 
	 Iterative  : no 
	 Start Angle: 0.000000 
	 Stop Angle : 0.000000 
	 Step Size  : 0.000000 
	 Oscillating: no 

Axis[3]
	 Selected   : no 
	 Iterative  : no 
	 Start Angle: 0.000000 
	 Stop Angle : 0.000000 
	 Step Size  : 0.000000 
	 Oscillating: no 

Axis[4]
	 Selected   : no 
	 Iterative  : no 
	 Start Angle: 0.000000 
	 Stop Angle : 0.000000 
	 Step Size  : 0.000000 
	 Oscillating: no 

Axis[5]
	 Selected   : no 
	 Iterative  : no 
	 Start Angle: 0.000000 
	 Stop Angle : 0.000000 
	 Step Size  : 0.000000 
	 Oscillating: no 

Axis[6]
	 Selected   : no 
	 Iterative  : no 
	 Start Angle: 0.000000 
	 Stop Angle : 0.000000 
	 Step Size  : 0.000000 
	 Oscillating: no 

Axis[7]
	 Selected   : no 
	 Iterative  : no 
	 Start Angle: 0.000000 
	 Stop Angle : 0.000000 
	 Step Size  : 0.000000 
	 Oscillating: no 

Axis[8]
	 Selected   : no 
	 Iterative  : no 
	 Start Angle: 0.000000 
	 Stop Angle : 0.000000 
	 Step Size  : 0.000000 
	 Oscillating: no 

Axis[9]
	 Selected   : no 
	 Iterative  : no 
	 Start Angle: 0.000000 
	 Stop Angle : 0.000000 
	 Step Size  : 0.000000 
	 Oscillating: no 




	   Deg.    Counts 	   Time 	    ESD   

Range 0
  15.000	       132	    1200	    11.489
  15.020	       115	    1200	    10.724
  15.040	       119	    1200	    10.909
  15.060	       117	    1200	    10.817
  15.080	       104	    1200	    10.198
  15.100	       109	    1200	    10.440
  15.120	       100	    1200	    10.000
  15.140	       115	    1200	    10.724
  15.160	       117	    1200	    10.817
  15.180	       113	    1200	    10.630
  15.200	       129	    1200	    11.358
  15.220	       112	    1200	    10.583
  15.240	       115	    1200	    10.724
  15.260	       108	    1200	    10.392
  15.280	       123	    1200	    11.091
  15.300	       115	    1200	    10.724
  15.320	       123	    1200	    11.091
  15.340	       109	    1200	    10.440
  15.360	       107	    1200	    10.344
  15.380	       119	    1200	    10.909
  15.400	        95	    1200	     9.747
  15.420	       130	    1200	    11.402
  15.440	       109	    1200	    10.440
  15.460	       131	    1200	    11.446
  15.480	       115	    1200	    10.724
  15.500	       113	    1200	    10.630
  15.520	       128	    1200	    11.314
  15.540	       120	    1200	    10.954
  15.560	       107	    1200	    10.344
  15.580	       123	    1200	    11.091
  15.600	       117	    1200	    10.817
  15.620	       110	    1200	    10.488
  15.640	       132	    1200	    11.489
  15.660	       121	    1200	    11.000
  15.680	       112	    1200	    10.583
  15.700	       114	    1200	    10.677
  15.720	       105	    1200	    10.247
  15.740	       120	    1200	    10.954
  15.760	       107	    1200	    10.344
  15.780	       114	    1200	    10.677
  15.800	       115	    1200	    10.724
  15.820	       122	    1200	    11.045
  15.840	       121	    1200	    11.000
  15.860	       106	    1200	    10.296
  15.880	       102	    1200	    10.100
  15.900	       116	    1200	    10.770
  15.920	       106	    1200	    10.296
  15.940	       137	    1200	    11.705
  15.960	       107	    1200	    10.344
  15.980	       109	    1200	    10.440
  16.000	       100	    1200	    10.000
  16.020	        97	    1200	     9.849
  16.040	        99	    1200	     9.950
  16.060	       122	    1200	    11.045
  16.080	       129	    1200	    11.358
  16.100	       102	    1200	    10.100
  16.120	       108	    1200	    10.392
  16.140	       104	    1200	    10.198
  16.160	       119	    1200	    10.909
  16.180	       108	    1200	    10.392
  16.200	       107	    1200	    10.344
  16.220	       118	    1200	    10.863
  16.240	       123	    1200	    11.091
  16.260	       109	    1200	    10.440
  16.280	       106	    1200	    10.296
  16.300	       114	    1200	    10.677
  16.320	        95	    1200	     9.747
  16.340	       119	    1200	    10.909
  16.360	       119	    1200	    10.909
  16.380	       128	    1200	    11.314
  16.400	        99	    1200	     9.950
  16.420	       112	    1200	    10.583
  16.440	       114	    1200	    10.677
  16.460	       124	    1200	    11.136
  16.480	       115	    1200	    10.724
  16.500	       126	    1200	    11.225
  16.520	       115	    1200	    10.724
  16.540	       111	    1200	    10.536
  16.560	       116	    1200	    10.770
  16.580	        93	    1200	     9.644
  16.600	       128	    1200	    11.314
  16.620	       115	    1200	    10.724
  16.640	       114	    1200	    10.677
  16.660	       115	    1200	    10.724
  16.680	        92	    1200	     9.592
  16.700	       116	    1200	    10.770
  16.720	       106	    1200	    10.296
  16.740	       104	    1200	    10.198
  16.760	       129	    1200	    11.358
  16.780	       114	    1200	    10.677
  16.800	       105	    1200	    10.247
  16.820	       123	    1200	    11.091
  16.840	       125	    1200	    11.180
  16.860	       127	    1200	    11.269
  16.880	       108	    1200	    10.392
  16.900	       122	    1200	    11.045
  16.920	       126	    1200	    11.225
  16.940	       108	    1200	    10.392
  16.960	       102	    1200	    10.100
  16.980	       106	    1200	    10.296
  17.000	       106	    1200	    10.296
  17.020	       108	    1200	    10.392
  17.040	        99	    1200	     9.950
  17.060	       113	    1200	    10.630
  17.080	       108	    1200	    10.392
  17.100	       113	    1200	    10.630
  17.120	       112	    1200	    10.583
  17.140	       114	    1200	    10.677
  17.160	       123	    1200	    11.091
  17.180	       103	    1200	    10.149
  17.200	       134	    1200	    11.576
  17.220	        76	    1200	     8.718
  17.240	        97	    1200	     9.849
  17.260	        95	    1200	     9.747
  17.280	       110	    1200	    10.488
  17.300	       119	    1200	    10.909
  17.320	       131	    1200	    11.446
  17.340	        89	    1200	     9.434
  17.360	       107	    1200	    10.344
  17.380	       101	    1200	    10.050
  17.400	       108	    1200	    10.392
  17.420	       112	    1200	    10.583
  17.440	       105	    1200	    10.247
  17.460	       121	    1200	    11.000
  17.480	       105	    1200	    10.247
  17.500	       101	    1200	    10.050
  17.520	        99	    1200	     9.950
  17.540	       127	    1200	    11.269
  17.560	       129	    1200	    11.358
  17.580	       112	    1200	    10.583
  17.600	       117	    1200	    10.817
  17.620	       109	    1200	    10.440
  17.640	       123	    1200	    11.091
  17.660	       106	    1200	    10.296
  17.680	       110	    1200	    10.488
  17.700	       107	    1200	    10.344
  17.720	        94	    1200	     9.695
  17.740	       111	    1200	    10.536
  17.760	       126	    1200	    11.225
  17.780	       116	    1200	    10.770
  17.800	       101	    1200	    10.050
  17.820	       113	    1200	    10.630
  17.840	       115	    1200	    10.724
  17.860	       105	    1200	    10.247
  17.880	       107	    1200	    10.344
  17.900	       120	    1200	    10.954
  17.920	       121	    1200	    11.000
  17.940	       110	    1200	    10.488
  17.960	       105	    1200	    10.247
  17.980	       110	    1200	    10.488
  18.000	        96	    1200	     9.798
  18.020	       100	    1200	    10.000
  18.040	       119	    1200	    10.909
  18.060	       101	    1200	    10.050
  18.080	        99	    1200	     9.950
  18.100	       100	    1200	    10.000
  18.120	       121	    1200	    11.000
  18.140	       121	    1200	    11.000
  18.160	       107	    1200	    10.344
  18.180	       120	    1200	    10.954
  18.200	       115	    1200	    10.724
  18.220	        98	    1200	     9.899
  18.240	       136	    1200	    11.662
  18.260	        95	    1200	     9.747
  18.280	       110	    1200	    10.488
  18.300	       102	    1200	    10.100
  18.320	       107	    1200	    10.344
  18.340	       105	    1200	    10.247
  18.360	       126	    1200	    11.225
  18.380	       113	    1200	    10.630
  18.400	       105	    1200	    10.247
  18.420	       106	    1200	    10.296
  18.440	       113	    1200	    10.630
  18.460	        97	    1200	     9.849
  18.480	       117	    1200	    10.817
  18.500	       107	    1200	    10.344
  18.520	       110	    1200	    10.488
  18.540	       119	    1200	    10.909
  18.560	       102	    1200	    10.100
  18.580	       111	    1200	    10.536
  18.600	       107	    1200	    10.344
  18.620	       119	    1200	    10.909
  18.640	       108	    1200	    10.392
  18.660	       109	    1200	    10.440
  18.680	       129	    1200	    11.358
  18.700	       124	    1200	    11.136
  18.720	       121	    1200	    11.000
  18.740	        99	    1200	     9.950
  18.760	       119	    1200	    10.909
  18.780	       114	    1200	    10.677
  18.800	       100	    1200	    10.000
  18.820	       117	    1200	    10.817
  18.840	       121	    1200	    11.000
  18.860	       118	    1200	    10.863
  18.880	       109	    1200	    10.440
  18.900	       110	    1200	    10.488
  18.920	       116	    1200	    10.770
  18.940	       104	    1200	    10.198
  18.960	       112	    1200	    10.583
  18.980	       113	    1200	    10.630
  19.000	        98	    1200	     9.899
  19.020	       115	    1200	    10.724
  19.040	       110	    1200	    10.488
  19.060	        99	    1200	     9.950
  19.080	       117	    1200	    10.817
  19.100	       111	    1200	    10.536
  19.120	       108	    1200	    10.392
  19.140	       122	    1200	    11.045
  19.160	       116	    1200	    10.770
  19.180	       119	    1200	    10.909
  19.200	       104	    1200	    10.198
  19.220	       119	    1200	    10.909
  19.240	       112	    1200	    10.583
  19.260	       117	    1200	    10.817
  19.280	       119	    1200	    10.909
  19.300	       123	    1200	    11.091
  19.320	       109	    1200	    10.440
  19.340	       108	    1200	    10.392
  19.360	       103	    1200	    10.149
  19.380	       127	    1200	    11.269
  19.400	        96	    1200	     9.798
  19.420	       107	    1200	    10.344
  19.440	       116	    1200	    10.770
  19.460	        94	    1200	     9.695
  19.480	       115	    1200	    10.724
  19.500	       114	    1200	    10.677
  19.520	       102	    1200	    10.100
  19.540	       115	    1200	    10.724
  19.560	       102	    1200	    10.100
  19.580	       119	    1200	    10.909
  19.600	       117	    1200	    10.817
  19.620	       113	    1200	    10.630
  19.640	       123	    1200	    11.091
  19.660	       114	    1200	    10.677
  19.680	       107	    1200	    10.344
  19.700	        91	    1200	     9.539
  19.720	       121	    1200	    11.000
  19.740	       113	    1200	    10.630
  19.760	       111	    1200	    10.536
  19.780	       111	    1200	    10.536
  19.800	       114	    1200	    10.677
  19.820	       125	    1200	    11.180
  19.840	       129	    1200	    11.358
  19.860	       115	    1200	    10.724
  19.880	       106	    1200	    10.296
  19.900	       103	    1200	    10.149
  19.920	        95	    1200	     9.747
  19.940	       115	    1200	    10.724
  19.960	        98	    1200	     9.899
  19.980	       113	    1200	    10.630
  20.000	       119	    1200	    10.909
  20.020	       105	    1200	    10.247
  20.040	        93	    1200	     9.644
  20.060	       103	    1200	    10.149
  20.080	       106	    1200	    10.296
  20.100	       114	    1200	    10.677
  20.120	       105	    1200	    10.247
  20.140	        91	    1200	     9.539
  20.160	       115	    1200	    10.724
  20.180	       121	    1200	    11.000
  20.200	       108	    1200	    10.392
  20.220	       107	    1200	    10.344
  20.240	       103	    1200	    10.149
  20.260	       129	    1200	    11.358
  20.280	        96	    1200	     9.798
  20.300	       129	    1200	    11.358
  20.320	        99	    1200	     9.950
  20.340	       101	    1200	    10.050
  20.360	       107	    1200	    10.344
  20.380	       105	    1200	    10.247
  20.400	       133	    1200	    11.533
  20.420	       106	    1200	    10.296
  20.440	       101	    1200	    10.050
  20.460	       131	    1200	    11.446
  20.480	       103	    1200	    10.149
  20.500	       130	    1200	    11.402
  20.520	       102	    1200	    10.100
  20.540	       121	    1200	    11.000
  20.560	       128	    1200	    11.314
  20.580	       110	    1200	    10.488
  20.600	       107	    1200	    10.344
  20.620	       122	    1200	    11.045
  20.640	       112	    1200	    10.583
  20.660	        94	    1200	     9.695
  20.680	       101	    1200	    10.050
  20.700	        93	    1200	     9.644
  20.720	       119	    1200	    10.909
  20.740	       102	    1200	    10.100
  20.760	       114	    1200	    10.677
  20.780	       104	    1200	    10.198
  20.800	        95	    1200	     9.747
  20.820	       104	    1200	    10.198
  20.840	       105	    1200	    10.247
  20.860	       118	    1200	    10.863
  20.880	       113	    1200	    10.630
  20.900	       112	    1200	    10.583
  20.920	       117	    1200	    10.817
  20.940	        97	    1200	     9.849
  20.960	       112	    1200	    10.583
  20.980	       122	    1200	    11.045
  21.000	       103	    1200	    10.149
  21.020	       120	    1200	    10.954
  21.040	       134	    1200	    11.576
  21.060	       106	    1200	    10.296
  21.080	        97	    1200	     9.849
  21.100	       100	    1200	    10.000
  21.120	       107	    1200	    10.344
  21.140	       114	    1200	    10.677
  21.160	       116	    1200	    10.770
  21.180	       103	    1200	    10.149
  21.200	        91	    1200	     9.539
  21.220	       104	    1200	    10.198
  21.240	       124	    1200	    11.136
  21.260	       114	    1200	    10.677
  21.280	        89	    1200	     9.434
  21.300	       118	    1200	    10.863
  21.320	        96	    1200	     9.798
  21.340	       111	    1200	    10.536
  21.360	        98	    1200	     9.899
  21.380	       105	    1200	    10.247
  21.400	       127	    1200	    11.269
  21.420	       115	    1200	    10.724
  21.440	        86	    1200	     9.274
  21.460	       107	    1200	    10.344
  21.480	       123	    1200	    11.091
  21.500	       112	    1200	    10.583
  21.520	       113	    1200	    10.630
  21.540	       117	    1200	    10.817
  21.560	       104	    1200	    10.198
  21.580	        97	    1200	     9.849
  21.600	       108	    1200	    10.392
  21.620	       106	    1200	    10.296
  21.640	       111	    1200	    10.536
  21.660	       108	    1200	    10.392
  21.680	       106	    1200	    10.296
  21.700	       110	    1200	    10.488
  21.720	        98	    1200	     9.899
  21.740	       107	    1200	    10.344
  21.760	       109	    1200	    10.440
  21.780	       108	    1200	    10.392
  21.800	        98	    1200	     9.899
  21.820	       103	    1200	    10.149
  21.840	       120	    1200	    10.954
  21.860	       100	    1200	    10.000
  21.880	        94	    1200	     9.695
  21.900	       103	    1200	    10.149
  21.920	        87	    1200	     9.327
  21.940	       116	    1200	    10.770
  21.960	       119	    1200	    10.909
  21.980	       101	    1200	    10.050
  22.000	       113	    1200	    10.630
  22.020	       108	    1200	    10.392
  22.040	        93	    1200	     9.644
  22.060	        96	    1200	     9.798
  22.080	       120	    1200	    10.954
  22.100	        96	    1200	     9.798
  22.120	       101	    1200	    10.050
  22.140	       105	    1200	    10.247
  22.160	       113	    1200	    10.630
  22.180	        98	    1200	     9.899
  22.200	       112	    1200	    10.583
  22.220	        95	    1200	     9.747
  22.240	       112	    1200	    10.583
  22.260	        98	    1200	     9.899
  22.280	       115	    1200	    10.724
  22.300	       121	    1200	    11.000
  22.320	       129	    1200	    11.358
  22.340	        88	    1200	     9.381
  22.360	       119	    1200	    10.909
  22.380	       132	    1200	    11.489
  22.400	       121	    1200	    11.000
  22.420	       139	    1200	    11.790
  22.440	       133	    1200	    11.533
  22.460	       156	    1200	    12.490
  22.480	       141	    1200	    11.874
  22.500	       159	    1200	    12.610
  22.520	       157	    1200	    12.530
  22.540	       174	    1200	    13.191
  22.560	       167	    1200	    12.923
  22.580	       173	    1200	    13.153
  22.600	       159	    1200	    12.610
  22.620	       139	    1200	    11.790
  22.640	       155	    1200	    12.450
  22.660	       128	    1200	    11.314
  22.680	       120	    1200	    10.954
  22.700	       108	    1200	    10.392
  22.720	       103	    1200	    10.149
  22.740	       113	    1200	    10.630
  22.760	       106	    1200	    10.296
  22.780	       106	    1200	    10.296
  22.800	       111	    1200	    10.536
  22.820	        95	    1200	     9.747
  22.840	       104	    1200	    10.198
  22.860	        84	    1200	     9.165
  22.880	        92	    1200	     9.592
  22.900	        98	    1200	     9.899
  22.920	       120	    1200	    10.954
  22.940	       117	    1200	    10.817
  22.960	       102	    1200	    10.100
  22.980	       107	    1200	    10.344
  23.000	       103	    1200	    10.149
  23.020	       108	    1200	    10.392
  23.040	        90	    1200	     9.487
  23.060	        96	    1200	     9.798
  23.080	       101	    1200	    10.050
  23.100	       103	    1200	    10.149
  23.120	       119	    1200	    10.909
  23.140	        89	    1200	     9.434
  23.160	        84	    1200	     9.165
  23.180	       112	    1200	    10.583
  23.200	        81	    1200	     9.000
  23.220	       102	    1200	    10.100
  23.240	       105	    1200	    10.247
  23.260	       103	    1200	    10.149
  23.280	        97	    1200	     9.849
  23.300	       106	    1200	    10.296
  23.320	        91	    1200	     9.539
  23.340	        95	    1200	     9.747
  23.360	        94	    1200	     9.695
  23.380	       101	    1200	    10.050
  23.400	        91	    1200	     9.539
  23.420	        86	    1200	     9.274
  23.440	        95	    1200	     9.747
  23.460	       101	    1200	    10.050
  23.480	        98	    1200	     9.899
  23.500	        80	    1200	     8.944
  23.520	        84	    1200	     9.165
  23.540	        97	    1200	     9.849
  23.560	        96	    1200	     9.798
  23.580	        88	    1200	     9.381
  23.600	        85	    1200	     9.220
  23.620	       108	    1200	    10.392
  23.640	       120	    1200	    10.954
  23.660	       101	    1200	    10.050
  23.680	        98	    1200	     9.899
  23.700	        96	    1200	     9.798
  23.720	        84	    1200	     9.165
  23.740	        90	    1200	     9.487
  23.760	       109	    1200	    10.440
  23.780	       105	    1200	    10.247
  23.800	        90	    1200	     9.487
  23.820	        92	    1200	     9.592
  23.840	        98	    1200	     9.899
  23.860	        91	    1200	     9.539
  23.880	        94	    1200	     9.695
  23.900	       101	    1200	    10.050
  23.920	        96	    1200	     9.798
  23.940	        83	    1200	     9.110
  23.960	        76	    1200	     8.718
  23.980	        87	    1200	     9.327
  24.000	        82	    1200	     9.055
  24.020	       108	    1200	    10.392
  24.040	        93	    1200	     9.644
  24.060	        91	    1200	     9.539
  24.080	        93	    1200	     9.644
  24.100	        90	    1200	     9.487
  24.120	        78	    1200	     8.832
  24.140	        94	    1200	     9.695
  24.160	       106	    1200	    10.296
  24.180	        83	    1200	     9.110
  24.200	        90	    1200	     9.487
  24.220	        88	    1200	     9.381
  24.240	        88	    1200	     9.381
  24.260	        81	    1200	     9.000
  24.280	        83	    1200	     9.110
  24.300	        87	    1200	     9.327
  24.320	        84	    1200	     9.165
  24.340	        81	    1200	     9.000
  24.360	       101	    1200	    10.050
  24.380	        99	    1200	     9.950
  24.400	        84	    1200	     9.165
  24.420	       106	    1200	    10.296
  24.440	       102	    1200	    10.100
  24.460	        78	    1200	     8.832
  24.480	        80	    1200	     8.944
  24.500	        86	    1200	     9.274
  24.520	        79	    1200	     8.888
  24.540	        96	    1200	     9.798
  24.560	        83	    1200	     9.110
  24.580	        92	    1200	     9.592
  24.600	        95	    1200	     9.747
  24.620	        85	    1200	     9.220
  24.640	        88	    1200	     9.381
  24.660	        81	    1200	     9.000
  24.680	        94	    1200	     9.695
  24.700	        80	    1200	     8.944
  24.720	        82	    1200	     9.055
  24.740	        69	    1200	     8.307
  24.760	        87	    1200	     9.327
  24.780	        88	    1200	     9.381
  24.800	        84	    1200	     9.165
  24.820	        90	    1200	     9.487
  24.840	        63	    1200	     7.937
  24.860	        92	    1200	     9.592
  24.880	        83	    1200	     9.110
  24.900	        87	    1200	     9.327
  24.920	        91	    1200	     9.539
  24.940	        84	    1200	     9.165
  24.960	       100	    1200	    10.000
  24.980	        79	    1200	     8.888
  25.000	        98	    1200	     9.899
  25.020	        83	    1200	     9.110
  25.040	        85	    1200	     9.220
  25.060	        87	    1200	     9.327
  25.080	        83	    1200	     9.110
  25.100	        92	    1200	     9.592
  25.120	        84	    1200	     9.165
  25.140	        87	    1200	     9.327
  25.160	        88	    1200	     9.381
  25.180	        85	    1200	     9.220
  25.200	        75	    1200	     8.660
  25.220	        76	    1200	     8.718
  25.240	        93	    1200	     9.644
  25.260	        79	    1200	     8.888
  25.280	        77	    1200	     8.775
  25.300	        68	    1200	     8.246
  25.320	        72	    1200	     8.485
  25.340	       105	    1200	    10.247
  25.360	        76	    1200	     8.718
  25.380	        86	    1200	     9.274
  25.400	        79	    1200	     8.888
  25.420	        95	    1200	     9.747
  25.440	        73	    1200	     8.544
  25.460	       102	    1200	    10.100
  25.480	        80	    1200	     8.944
  25.500	        88	    1200	     9.381
  25.520	        65	    1200	     8.062
  25.540	        91	    1200	     9.539
  25.560	        80	    1200	     8.944
  25.580	        65	    1200	     8.062
  25.600	        58	    1200	     7.616
  25.620	        82	    1200	     9.055
  25.640	        86	    1200	     9.274
  25.660	        86	    1200	     9.274
  25.680	        79	    1200	     8.888
  25.700	        79	    1200	     8.888
  25.720	        64	    1200	     8.000
  25.740	        71	    1200	     8.426
  25.760	        93	    1200	     9.644
  25.780	        64	    1200	     8.000
  25.800	        70	    1200	     8.367
  25.820	        81	    1200	     9.000
  25.840	        83	    1200	     9.110
  25.860	        79	    1200	     8.888
  25.880	        81	    1200	     9.000
  25.900	        61	    1200	     7.810
  25.920	        79	    1200	     8.888
  25.940	        63	    1200	     7.937
  25.960	        71	    1200	     8.426
  25.980	        74	    1200	     8.602
  26.000	        71	    1200	     8.426
  26.020	        72	    1200	     8.485
  26.040	        65	    1200	     8.062
  26.060	        57	    1200	     7.550
  26.080	        56	    1200	     7.483
  26.100	        69	    1200	     8.307
  26.120	        65	    1200	     8.062
  26.140	        89	    1200	     9.434
  26.160	        82	    1200	     9.055
  26.180	        69	    1200	     8.307
  26.200	        72	    1200	     8.485
  26.220	        72	    1200	     8.485
  26.240	        76	    1200	     8.718
  26.260	        64	    1200	     8.000
  26.280	        73	    1200	     8.544
  26.300	        71	    1200	     8.426
  26.320	        79	    1200	     8.888
  26.340	        68	    1200	     8.246
  26.360	        85	    1200	     9.220
  26.380	        75	    1200	     8.660
  26.400	        57	    1200	     7.550
  26.420	        70	    1200	     8.367
  26.440	        64	    1200	     8.000
  26.460	        65	    1200	     8.062
  26.480	        68	    1200	     8.246
  26.500	        77	    1200	     8.775
  26.520	        73	    1200	     8.544
  26.540	        82	    1200	     9.055
  26.560	        68	    1200	     8.246
  26.580	        73	    1200	     8.544
  26.600	        72	    1200	     8.485
  26.620	        76	    1200	     8.718
  26.640	        68	    1200	     8.246
  26.660	        63	    1200	     7.937
  26.680	        73	    1200	     8.544
  26.700	        72	    1200	     8.485
  26.720	        76	    1200	     8.718
  26.740	        70	    1200	     8.367
  26.760	        68	    1200	     8.246
  26.780	        68	    1200	     8.246
  26.800	        56	    1200	     7.483
  26.820	        65	    1200	     8.062
  26.840	        56	    1200	     7.483
  26.860	        63	    1200	     7.937
  26.880	        79	    1200	     8.888
  26.900	        69	    1200	     8.307
  26.920	        76	    1200	     8.718
  26.940	        79	    1200	     8.888
  26.960	        61	    1200	     7.810
  26.980	        68	    1200	     8.246
  27.000	        60	    1200	     7.746
  27.020	        53	    1200	     7.280
  27.040	        59	    1200	     7.681
  27.060	        57	    1200	     7.550
  27.080	        69	    1200	     8.307
  27.100	        70	    1200	     8.367
  27.120	        57	    1200	     7.550
  27.140	        63	    1200	     7.937
  27.160	        56	    1200	     7.483
  27.180	        64	    1200	     8.000
  27.200	        54	    1200	     7.348
  27.220	        79	    1200	     8.888
  27.240	        59	    1200	     7.681
  27.260	        51	    1200	     7.141
  27.280	        58	    1200	     7.616
  27.300	        55	    1200	     7.416
  27.320	        54	    1200	     7.348
  27.340	        73	    1200	     8.544
  27.360	        73	    1200	     8.544
  27.380	        56	    1200	     7.483
  27.400	        70	    1200	     8.367
  27.420	        51	    1200	     7.141
  27.440	        74	    1200	     8.602
  27.460	        55	    1200	     7.416
  27.480	        59	    1200	     7.681
  27.500	        73	    1200	     8.544
  27.520	        67	    1200	     8.185
  27.540	        59	    1200	     7.681
  27.560	        55	    1200	     7.416
  27.580	        63	    1200	     7.937
  27.600	        68	    1200	     8.246
  27.620	        65	    1200	     8.062
  27.640	        67	    1200	     8.185
  27.660	        52	    1200	     7.211
  27.680	        45	    1200	     6.708
  27.700	        66	    1200	     8.124
  27.720	        65	    1200	     8.062
  27.740	        62	    1200	     7.874
  27.760	        50	    1200	     7.071
  27.780	        64	    1200	     8.000
  27.800	        77	    1200	     8.775
  27.820	        47	    1200	     6.856
  27.840	        56	    1200	     7.483
  27.860	        55	    1200	     7.416
  27.880	        58	    1200	     7.616
  27.900	        56	    1200	     7.483
  27.920	        58	    1200	     7.616
  27.940	        69	    1200	     8.307
  27.960	        48	    1200	     6.928
  27.980	        50	    1200	     7.071
  28.000	        43	    1200	     6.557
  28.020	        42	    1200	     6.481
  28.040	        62	    1200	     7.874
  28.060	        51	    1200	     7.141
  28.080	        48	    1200	     6.928
  28.100	        54	    1200	     7.348
  28.120	        43	    1200	     6.557
  28.140	        65	    1200	     8.062
  28.160	        53	    1200	     7.280
  28.180	        75	    1200	     8.660
  28.200	        52	    1200	     7.211
  28.220	        60	    1200	     7.746
  28.240	        60	    1200	     7.746
  28.260	        57	    1200	     7.550
  28.280	        53	    1200	     7.280
  28.300	        50	    1200	     7.071
  28.320	        59	    1200	     7.681
  28.340	        58	    1200	     7.616
  28.360	        52	    1200	     7.211
  28.380	        45	    1200	     6.708
  28.400	        45	    1200	     6.708
  28.420	        46	    1200	     6.782
  28.440	        49	    1200	     7.000
  28.460	        58	    1200	     7.616
  28.480	        65	    1200	     8.062
  28.500	        57	    1200	     7.550
  28.520	        41	    1200	     6.403
  28.540	        50	    1200	     7.071
  28.560	        58	    1200	     7.616
  28.580	        48	    1200	     6.928
  28.600	        62	    1200	     7.874
  28.620	        59	    1200	     7.681
  28.640	        58	    1200	     7.616
  28.660	        41	    1200	     6.403
  28.680	        57	    1200	     7.550
  28.700	        60	    1200	     7.746
  28.720	        61	    1200	     7.810
  28.740	        65	    1200	     8.062
  28.760	        59	    1200	     7.681
  28.780	        64	    1200	     8.000
  28.800	        53	    1200	     7.280
  28.820	        62	    1200	     7.874
  28.840	        57	    1200	     7.550
  28.860	        51	    1200	     7.141
  28.880	        42	    1200	     6.481
  28.900	        58	    1200	     7.616
  28.920	        60	    1200	     7.746
  28.940	        43	    1200	     6.557
  28.960	        60	    1200	     7.746
  28.980	        66	    1200	     8.124
  29.000	        49	    1200	     7.000
  29.020	        55	    1200	     7.416
  29.040	        46	    1200	     6.782
  29.060	        50	    1200	     7.071
  29.080	        48	    1200	     6.928
  29.100	        53	    1200	     7.280
  29.120	        53	    1200	     7.280
  29.140	        49	    1200	     7.000
  29.160	        46	    1200	     6.782
  29.180	        52	    1200	     7.211
  29.200	        57	    1200	     7.550
  29.220	        45	    1200	     6.708
  29.240	        44	    1200	     6.633
  29.260	        52	    1200	     7.211
  29.280	        48	    1200	     6.928
  29.300	        62	    1200	     7.874
  29.320	        59	    1200	     7.681
  29.340	        45	    1200	     6.708
  29.360	        56	    1200	     7.483
  29.380	        45	    1200	     6.708
  29.400	        47	    1200	     6.856
  29.420	        55	    1200	     7.416
  29.440	        47	    1200	     6.856
  29.460	        53	    1200	     7.280
  29.480	        48	    1200	     6.928
  29.500	        27	    1200	     5.196
  29.520	        38	    1200	     6.164
  29.540	        47	    1200	     6.856
  29.560	        50	    1200	     7.071
  29.580	        50	    1200	     7.071
  29.600	        44	    1200	     6.633
  29.620	        51	    1200	     7.141
  29.640	        43	    1200	     6.557
  29.660	        55	    1200	     7.416
  29.680	        52	    1200	     7.211
  29.700	        56	    1200	     7.483
  29.720	        54	    1200	     7.348
  29.740	        49	    1200	     7.000
  29.760	        37	    1200	     6.083
  29.780	        46	    1200	     6.782
  29.800	        50	    1200	     7.071
  29.820	        62	    1200	     7.874
  29.840	        48	    1200	     6.928
  29.860	        49	    1200	     7.000
  29.880	        45	    1200	     6.708
  29.900	        44	    1200	     6.633
  29.920	        59	    1200	     7.681
  29.940	        41	    1200	     6.403
  29.960	        48	    1200	     6.928
  29.980	        45	    1200	     6.708
  30.000	        52	    1200	     7.211
  30.020	        41	    1200	     6.403
  30.040	        50	    1200	     7.071
  30.060	        42	    1200	     6.481
  30.080	        53	    1200	     7.280
  30.100	        49	    1200	     7.000
  30.120	        59	    1200	     7.681
  30.140	        50	    1200	     7.071
  30.160	        39	    1200	     6.245
  30.180	        49	    1200	     7.000
  30.200	        48	    1200	     6.928
  30.220	        46	    1200	     6.782
  30.240	        34	    1200	     5.831
  30.260	        36	    1200	     6.000
  30.280	        62	    1200	     7.874
  30.300	        41	    1200	     6.403
  30.320	        43	    1200	     6.557
  30.340	        38	    1200	     6.164
  30.360	        47	    1200	     6.856
  30.380	        48	    1200	     6.928
  30.400	        49	    1200	     7.000
  30.420	        51	    1200	     7.141
  30.440	        56	    1200	     7.483
  30.460	        35	    1200	     5.916
  30.480	        40	    1200	     6.325
  30.500	        48	    1200	     6.928
  30.520	        54	    1200	     7.348
  30.540	        47	    1200	     6.856
  30.560	        41	    1200	     6.403
  30.580	        54	    1200	     7.348
  30.600	        43	    1200	     6.557
  30.620	        54	    1200	     7.348
  30.640	        50	    1200	     7.071
  30.660	        55	    1200	     7.416
  30.680	        48	    1200	     6.928
  30.700	        41	    1200	     6.403
  30.720	        49	    1200	     7.000
  30.740	        42	    1200	     6.481
  30.760	        55	    1200	     7.416
  30.780	        47	    1200	     6.856
  30.800	        46	    1200	     6.782
  30.820	        59	    1200	     7.681
  30.840	        52	    1200	     7.211
  30.860	        43	    1200	     6.557
  30.880	        54	    1200	     7.348
  30.900	        52	    1200	     7.211
  30.920	        42	    1200	     6.481
  30.940	        50	    1200	     7.071
  30.960	        55	    1200	     7.416
  30.980	        47	    1200	     6.856
  31.000	        61	    1200	     7.810
  31.020	        48	    1200	     6.928
  31.040	        58	    1200	     7.616
  31.060	        45	    1200	     6.708
  31.080	        47	    1200	     6.856
  31.100	        55	    1200	     7.416
  31.120	        55	    1200	     7.416
  31.140	        52	    1200	     7.211
  31.160	        38	    1200	     6.164
  31.180	        42	    1200	     6.481
  31.200	        51	    1200	     7.141
  31.220	        60	    1200	     7.746
  31.240	        44	    1200	     6.633
  31.260	        66	    1200	     8.124
  31.280	        52	    1200	     7.211
  31.300	        75	    1200	     8.660
  31.320	        68	    1200	     8.246
  31.340	        63	    1200	     7.937
  31.360	        60	    1200	     7.746
  31.380	        59	    1200	     7.681
  31.400	        59	    1200	     7.681
  31.420	        61	    1200	     7.810
  31.440	        83	    1200	     9.110
  31.460	        79	    1200	     8.888
  31.480	        87	    1200	     9.327
  31.500	        79	    1200	     8.888
  31.520	        73	    1200	     8.544
  31.540	        78	    1200	     8.832
  31.560	        90	    1200	     9.487
  31.580	        90	    1200	     9.487
  31.600	        99	    1200	     9.950
  31.620	        87	    1200	     9.327
  31.640	       110	    1200	    10.488
  31.660	        97	    1200	     9.849
  31.680	       107	    1200	    10.344
  31.700	       102	    1200	    10.100
  31.720	       122	    1200	    11.045
  31.740	       129	    1200	    11.358
  31.760	       143	    1200	    11.958
  31.780	       141	    1200	    11.874
  31.800	       150	    1200	    12.247
  31.820	       201	    1200	    14.177
  31.840	       187	    1200	    13.675
  31.860	       177	    1200	    13.304
  31.880	       255	    1200	    15.969
  31.900	       310	    1200	    17.607
  31.920	       356	    1200	    18.868
  31.940	       427	    1200	    20.664
  31.960	       512	    1200	    22.627
  31.980	       633	    1200	    25.159
  32.000	       730	    1200	    27.019
  32.020	      1005	    1200	    31.702
  32.040	      1289	    1200	    35.903
  32.060	      1440	    1200	    37.947
  32.080	      1872	    1200	    43.267
  32.100	      2183	    1200	    46.723
  32.120	      2422	    1200	    49.214
  32.140	      2639	    1200	    51.371
  32.160	      2760	    1200	    52.536
  32.180	      2828	    1200	    53.179
  32.200	      2772	    1200	    52.650
  32.220	      2561	    1200	    50.606
  32.240	      2370	    1200	    48.683
  32.260	      2083	    1200	    45.640
  32.280	      1816	    1200	    42.615
  32.300	      1574	    1200	    39.674
  32.320	      1372	    1200	    37.041
  32.340	      1127	    1200	    33.571
  32.360	       908	    1200	    30.133
  32.380	       745	    1200	    27.295
  32.400	       579	    1200	    24.062
  32.420	       491	    1200	    22.159
  32.440	       463	    1200	    21.517
  32.460	       346	    1200	    18.601
  32.480	       267	    1200	    16.340
  32.500	       225	    1200	    15.000
  32.520	       196	    1200	    14.000
  32.540	       189	    1200	    13.748
  32.560	       147	    1200	    12.124
  32.580	       129	    1200	    11.358
  32.600	       113	    1200	    10.630
  32.620	        98	    1200	     9.899
  32.640	        94	    1200	     9.695
  32.660	       101	    1200	    10.050
  32.680	        95	    1200	     9.747
  32.700	        94	    1200	     9.695
  32.720	        73	    1200	     8.544
  32.740	        71	    1200	     8.426
  32.760	        75	    1200	     8.660
  32.780	        80	    1200	     8.944
  32.800	        78	    1200	     8.832
  32.820	        67	    1200	     8.185
  32.840	        71	    1200	     8.426
  32.860	        73	    1200	     8.544
  32.880	        66	    1200	     8.124
  32.900	        66	    1200	     8.124
  32.920	        70	    1200	     8.367
  32.940	        62	    1200	     7.874
  32.960	        62	    1200	     7.874
  32.980	        59	    1200	     7.681
  33.000	        66	    1200	     8.124
  33.020	        55	    1200	     7.416
  33.040	        54	    1200	     7.348
  33.060	        62	    1200	     7.874
  33.080	        58	    1200	     7.616
  33.100	        50	    1200	     7.071
  33.120	        49	    1200	     7.000
  33.140	        61	    1200	     7.810
  33.160	        47	    1200	     6.856
  33.180	        52	    1200	     7.211
  33.200	        51	    1200	     7.141
  33.220	        58	    1200	     7.616
  33.240	        52	    1200	     7.211
  33.260	        50	    1200	     7.071
  33.280	        42	    1200	     6.481
  33.300	        60	    1200	     7.746
  33.320	        36	    1200	     6.000
  33.340	        57	    1200	     7.550
  33.360	        42	    1200	     6.481
  33.380	        39	    1200	     6.245
  33.400	        41	    1200	     6.403
  33.420	        52	    1200	     7.211
  33.440	        50	    1200	     7.071
  33.460	        39	    1200	     6.245
  33.480	        46	    1200	     6.782
  33.500	        49	    1200	     7.000
  33.520	        44	    1200	     6.633
  33.540	        36	    1200	     6.000
  33.560	        50	    1200	     7.071
  33.580	        36	    1200	     6.000
  33.600	        50	    1200	     7.071
  33.620	        55	    1200	     7.416
  33.640	        46	    1200	     6.782
  33.660	        34	    1200	     5.831
  33.680	        59	    1200	     7.681
  33.700	        48	    1200	     6.928
  33.720	        41	    1200	     6.403
  33.740	        32	    1200	     5.657
  33.760	        51	    1200	     7.141
  33.780	        43	    1200	     6.557
  33.800	        39	    1200	     6.245
  33.820	        42	    1200	     6.481
  33.840	        32	    1200	     5.657
  33.860	        37	    1200	     6.083
  33.880	        31	    1200	     5.568
  33.900	        33	    1200	     5.745
  33.920	        43	    1200	     6.557
  33.940	        37	    1200	     6.083
  33.960	        35	    1200	     5.916
  33.980	        37	    1200	     6.083
  34.000	        31	    1200	     5.568
  34.020	        37	    1200	     6.083
  34.040	        42	    1200	     6.481
  34.060	        44	    1200	     6.633
  34.080	        47	    1200	     6.856
  34.100	        38	    1200	     6.164
  34.120	        40	    1200	     6.325
  34.140	        36	    1200	     6.000
  34.160	        37	    1200	     6.083
  34.180	        41	    1200	     6.403
  34.200	        16	    1200	     4.000
  34.220	        48	    1200	     6.928
  34.240	        39	    1200	     6.245
  34.260	        38	    1200	     6.164
  34.280	        35	    1200	     5.916
  34.300	        43	    1200	     6.557
  34.320	        37	    1200	     6.083
  34.340	        36	    1200	     6.000
  34.360	        28	    1200	     5.292
  34.380	        34	    1200	     5.831
  34.400	        35	    1200	     5.916
  34.420	        35	    1200	     5.916
  34.440	        43	    1200	     6.557
  34.460	        30	    1200	     5.477
  34.480	        31	    1200	     5.568
  34.500	        37	    1200	     6.083
  34.520	        26	    1200	     5.099
  34.540	        35	    1200	     5.916
  34.560	        38	    1200	     6.164
  34.580	        35	    1200	     5.916
  34.600	        33	    1200	     5.745
  34.620	        29	    1200	     5.385
  34.640	        18	    1200	     4.243
  34.660	        32	    1200	     5.657
  34.680	        34	    1200	     5.831
  34.700	        38	    1200	     6.164
  34.720	        35	    1200	     5.916
  34.740	        36	    1200	     6.000
  34.760	        27	    1200	     5.196
  34.780	        33	    1200	     5.745
  34.800	        21	    1200	     4.583
  34.820	        25	    1200	     5.000
  34.840	        34	    1200	     5.831
  34.860	        31	    1200	     5.568
  34.880	        29	    1200	     5.385
  34.900	        31	    1200	     5.568
  34.920	        35	    1200	     5.916
  34.940	        23	    1200	     4.796
  34.960	        36	    1200	     6.000
  34.980	        21	    1200	     4.583
  35.000	        24	    1200	     4.899
  35.020	        25	    1200	     5.000
  35.040	        35	    1200	     5.916
  35.060	        23	    1200	     4.796
  35.080	        28	    1200	     5.292
  35.100	        30	    1200	     5.477
  35.120	        31	    1200	     5.568
  35.140	        28	    1200	     5.292
  35.160	        26	    1200	     5.099
  35.180	        27	    1200	     5.196
  35.200	        27	    1200	     5.196
  35.220	        32	    1200	     5.657
  35.240	        28	    1200	     5.292
  35.260	        33	    1200	     5.745
  35.280	        25	    1200	     5.000
  35.300	        17	    1200	     4.123
  35.320	        27	    1200	     5.196
  35.340	        26	    1200	     5.099
  35.360	        27	    1200	     5.196
  35.380	        26	    1200	     5.099
  35.400	        21	    1200	     4.583
  35.420	        20	    1200	     4.472
  35.440	        26	    1200	     5.099
  35.460	        29	    1200	     5.385
  35.480	        19	    1200	     4.359
  35.500	        24	    1200	     4.899
  35.520	        31	    1200	     5.568
  35.540	        29	    1200	     5.385
  35.560	        22	    1200	     4.690
  35.580	        30	    1200	     5.477
  35.600	        25	    1200	     5.000
  35.620	        24	    1200	     4.899
  35.640	        36	    1200	     6.000
  35.660	        39	    1200	     6.245
  35.680	        20	    1200	     4.472
  35.700	        39	    1200	     6.245
  35.720	        33	    1200	     5.745
  35.740	        26	    1200	     5.099
  35.760	        24	    1200	     4.899
  35.780	        33	    1200	     5.745
  35.800	        27	    1200	     5.196
  35.820	        22	    1200	     4.690
  35.840	        34	    1200	     5.831
  35.860	        20	    1200	     4.472
  35.880	        18	    1200	     4.243
  35.900	        21	    1200	     4.583
  35.920	        30	    1200	     5.477
  35.940	        30	    1200	     5.477
  35.960	        19	    1200	     4.359
  35.980	        23	    1200	     4.796
  36.000	        27	    1200	     5.196
  36.020	        33	    1200	     5.745
  36.040	        27	    1200	     5.196
  36.060	        29	    1200	     5.385
  36.080	        29	    1200	     5.385
  36.100	        27	    1200	     5.196
  36.120	        28	    1200	     5.292
  36.140	        30	    1200	     5.477
  36.160	        28	    1200	     5.292
  36.180	        23	    1200	     4.796
  36.200	        23	    1200	     4.796
  36.220	        23	    1200	     4.796
  36.240	        19	    1200	     4.359
  36.260	        21	    1200	     4.583
  36.280	        25	    1200	     5.000
  36.300	        27	    1200	     5.196
  36.320	        27	    1200	     5.196
  36.340	        25	    1200	     5.000
  36.360	        19	    1200	     4.359
  36.380	        18	    1200	     4.243
  36.400	        27	    1200	     5.196
  36.420	        25	    1200	     5.000
  36.440	        28	    1200	     5.292
  36.460	        15	    1200	     3.873
  36.480	        24	    1200	     4.899
  36.500	        24	    1200	     4.899
  36.520	        16	    1200	     4.000
  36.540	        30	    1200	     5.477
  36.560	        19	    1200	     4.359
  36.580	        18	    1200	     4.243
  36.600	        29	    1200	     5.385
  36.620	        22	    1200	     4.690
  36.640	        24	    1200	     4.899
  36.660	        26	    1200	     5.099
  36.680	        31	    1200	     5.568
  36.700	        24	    1200	     4.899
  36.720	        15	    1200	     3.873
  36.740	        20	    1200	     4.472
  36.760	        23	    1200	     4.796
  36.780	        24	    1200	     4.899
  36.800	        23	    1200	     4.796
  36.820	        23	    1200	     4.796
  36.840	        16	    1200	     4.000
  36.860	        21	    1200	     4.583
  36.880	        25	    1200	     5.000
  36.900	        19	    1200	     4.359
  36.920	        23	    1200	     4.796
  36.940	        22	    1200	     4.690
  36.960	        18	    1200	     4.243
  36.980	        30	    1200	     5.477
  37.000	        29	    1200	     5.385
  37.020	        17	    1200	     4.123
  37.040	        23	    1200	     4.796
  37.060	        28	    1200	     5.292
  37.080	        25	    1200	     5.000
  37.100	        31	    1200	     5.568
  37.120	        22	    1200	     4.690
  37.140	        16	    1200	     4.000
  37.160	        18	    1200	     4.243
  37.180	        23	    1200	     4.796
  37.200	        29	    1200	     5.385
  37.220	        23	    1200	     4.796
  37.240	        18	    1200	     4.243
  37.260	        24	    1200	     4.899
  37.280	        22	    1200	     4.690
  37.300	        24	    1200	     4.899
  37.320	        23	    1200	     4.796
  37.340	        23	    1200	     4.796
  37.360	        29	    1200	     5.385
  37.380	        14	    1200	     3.742
  37.400	        27	    1200	     5.196
  37.420	        19	    1200	     4.359
  37.440	        22	    1200	     4.690
  37.460	        19	    1200	     4.359
  37.480	        25	    1200	     5.000
  37.500	        18	    1200	     4.243
  37.520	        20	    1200	     4.472
  37.540	        22	    1200	     4.690
  37.560	        19	    1200	     4.359
  37.580	        23	    1200	     4.796
  37.600	        19	    1200	     4.359
  37.620	        28	    1200	     5.292
  37.640	        27	    1200	     5.196
  37.660	        17	    1200	     4.123
  37.680	        19	    1200	     4.359
  37.700	        20	    1200	     4.472
  37.720	        24	    1200	     4.899
  37.740	        20	    1200	     4.472
  37.760	        19	    1200	     4.359
  37.780	        24	    1200	     4.899
  37.800	        25	    1200	     5.000
  37.820	        18	    1200	     4.243
  37.840	        24	    1200	     4.899
  37.860	        23	    1200	     4.796
  37.880	        31	    1200	     5.568
  37.900	        18	    1200	     4.243
  37.920	        19	    1200	     4.359
  37.940	        24	    1200	     4.899
  37.960	        22	    1200	     4.690
  37.980	        25	    1200	     5.000
  38.000	        23	    1200	     4.796
  38.020	        25	    1200	     5.000
  38.040	        17	    1200	     4.123
  38.060	        20	    1200	     4.472
  38.080	        22	    1200	     4.690
  38.100	        24	    1200	     4.899
  38.120	        30	    1200	     5.477
  38.140	        19	    1200	     4.359
  38.160	        26	    1200	     5.099
  38.180	        27	    1200	     5.196
  38.200	        24	    1200	     4.899
  38.220	        20	    1200	     4.472
  38.240	        25	    1200	     5.000
  38.260	        32	    1200	     5.657
  38.280	        29	    1200	     5.385
  38.300	        27	    1200	     5.196
  38.320	        19	    1200	     4.359
  38.340	        33	    1200	     5.745
  38.360	        26	    1200	     5.099
  38.380	        25	    1200	     5.000
  38.400	        20	    1200	     4.472
  38.420	        32	    1200	     5.657
  38.440	        21	    1200	     4.583
  38.460	        15	    1200	     3.873
  38.480	        27	    1200	     5.196
  38.500	        23	    1200	     4.796
  38.520	        28	    1200	     5.292
  38.540	        14	    1200	     3.742
  38.560	        31	    1200	     5.568
  38.580	        23	    1200	     4.796
  38.600	        29	    1200	     5.385
  38.620	        29	    1200	     5.385
  38.640	        22	    1200	     4.690
  38.660	        17	    1200	     4.123
  38.680	        15	    1200	     3.873
  38.700	        17	    1200	     4.123
  38.720	        22	    1200	     4.690
  38.740	        18	    1200	     4.243
  38.760	        30	    1200	     5.477
  38.780	        19	    1200	     4.359
  38.800	        21	    1200	     4.583
  38.820	        26	    1200	     5.099
  38.840	        16	    1200	     4.000
  38.860	        21	    1200	     4.583
  38.880	        24	    1200	     4.899
  38.900	        20	    1200	     4.472
  38.920	        26	    1200	     5.099
  38.940	        21	    1200	     4.583
  38.960	        25	    1200	     5.000
  38.980	        22	    1200	     4.690
  39.000	        33	    1200	     5.745
  39.020	        23	    1200	     4.796
  39.040	        25	    1200	     5.000
  39.060	        31	    1200	     5.568
  39.080	        34	    1200	     5.831
  39.100	        45	    1200	     6.708
  39.120	        34	    1200	     5.831
  39.140	        30	    1200	     5.477
  39.160	        23	    1200	     4.796
  39.180	        26	    1200	     5.099
  39.200	        29	    1200	     5.385
  39.220	        27	    1200	     5.196
  39.240	        29	    1200	     5.385
  39.260	        40	    1200	     6.325
  39.280	        36	    1200	     6.000
  39.300	        37	    1200	     6.083
  39.320	        44	    1200	     6.633
  39.340	        30	    1200	     5.477
  39.360	        50	    1200	     7.071
  39.380	        33	    1200	     5.745
  39.400	        46	    1200	     6.782
  39.420	        46	    1200	     6.782
  39.440	        51	    1200	     7.141
  39.460	        56	    1200	     7.483
  39.480	        67	    1200	     8.185
  39.500	        96	    1200	     9.798
  39.520	       121	    1200	    11.000
  39.540	       129	    1200	    11.358
  39.560	       134	    1200	    11.576
  39.580	       171	    1200	    13.077
  39.600	       208	    1200	    14.422
  39.620	       263	    1200	    16.217
  39.640	       343	    1200	    18.520
  39.660	       373	    1200	    19.313
  39.680	       413	    1200	    20.322
  39.700	       450	    1200	    21.213
  39.720	       439	    1200	    20.952
  39.740	       487	    1200	    22.068
  39.760	       474	    1200	    21.772
  39.780	       508	    1200	    22.539
  39.800	       430	    1200	    20.736
  39.820	       405	    1200	    20.125
  39.840	       361	    1200	    19.000
  39.860	       340	    1200	    18.439
  39.880	       302	    1200	    17.378
  39.900	       227	    1200	    15.067
  39.920	       205	    1200	    14.318
  39.940	       175	    1200	    13.229
  39.960	       164	    1200	    12.806
  39.980	       139	    1200	    11.790
  40.000	        96	    1200	     9.798
  40.020	        89	    1200	     9.434
  40.040	        93	    1200	     9.644
  40.060	        84	    1200	     9.165
  40.080	        62	    1200	     7.874
  40.100	        70	    1200	     8.367
  40.120	        61	    1200	     7.810
  40.140	        53	    1200	     7.280
  40.160	        29	    1200	     5.385
  40.180	        34	    1200	     5.831
  40.200	        35	    1200	     5.916
  40.220	        38	    1200	     6.164
  40.240	        37	    1200	     6.083
  40.260	        37	    1200	     6.083
  40.280	        39	    1200	     6.245
  40.300	        40	    1200	     6.325
  40.320	        33	    1200	     5.745
  40.340	        28	    1200	     5.292
  40.360	        37	    1200	     6.083
  40.380	        27	    1200	     5.196
  40.400	        32	    1200	     5.657
  40.420	        20	    1200	     4.472
  40.440	        27	    1200	     5.196
  40.460	        34	    1200	     5.831
  40.480	        27	    1200	     5.196
  40.500	        21	    1200	     4.583
  40.520	        18	    1200	     4.243
  40.540	        36	    1200	     6.000
  40.560	        21	    1200	     4.583
  40.580	        32	    1200	     5.657
  40.600	        28	    1200	     5.292
  40.620	        30	    1200	     5.477
  40.640	        24	    1200	     4.899
  40.660	        29	    1200	     5.385
  40.680	        23	    1200	     4.796
  40.700	        25	    1200	     5.000
  40.720	        26	    1200	     5.099
  40.740	        16	    1200	     4.000
  40.760	        19	    1200	     4.359
  40.780	        21	    1200	     4.583
  40.800	        24	    1200	     4.899
  40.820	        22	    1200	     4.690
  40.840	        30	    1200	     5.477
  40.860	        24	    1200	     4.899
  40.880	        16	    1200	     4.000
  40.900	        27	    1200	     5.196
  40.920	        28	    1200	     5.292
  40.940	        16	    1200	     4.000
  40.960	        23	    1200	     4.796
  40.980	        23	    1200	     4.796
  41.000	        18	    1200	     4.243
  41.020	        32	    1200	     5.657
  41.040	        25	    1200	     5.000
  41.060	        23	    1200	     4.796
  41.080	        18	    1200	     4.243
  41.100	        31	    1200	     5.568
  41.120	        34	    1200	     5.831
  41.140	        34	    1200	     5.831
  41.160	        25	    1200	     5.000
  41.180	        32	    1200	     5.657
  41.200	        28	    1200	     5.292
  41.220	        33	    1200	     5.745
  41.240	        30	    1200	     5.477
  41.260	        37	    1200	     6.083
  41.280	        36	    1200	     6.000
  41.300	        37	    1200	     6.083
  41.320	        35	    1200	     5.916
  41.340	        34	    1200	     5.831
  41.360	        38	    1200	     6.164
  41.380	        30	    1200	     5.477
  41.400	        24	    1200	     4.899
  41.420	        30	    1200	     5.477
  41.440	        28	    1200	     5.292
  41.460	        27	    1200	     5.196
  41.480	        31	    1200	     5.568
  41.500	        21	    1200	     4.583
  41.520	        23	    1200	     4.796
  41.540	        26	    1200	     5.099
  41.560	        30	    1200	     5.477
  41.580	        19	    1200	     4.359
  41.600	        17	    1200	     4.123
  41.620	        23	    1200	     4.796
  41.640	        26	    1200	     5.099
  41.660	        15	    1200	     3.873
  41.680	        24	    1200	     4.899
  41.700	        25	    1200	     5.000
  41.720	        18	    1200	     4.243
  41.740	        29	    1200	     5.385
  41.760	        24	    1200	     4.899
  41.780	        29	    1200	     5.385
  41.800	        19	    1200	     4.359
  41.820	        16	    1200	     4.000
  41.840	        21	    1200	     4.583
  41.860	        31	    1200	     5.568
  41.880	        22	    1200	     4.690
  41.900	        18	    1200	     4.243
  41.920	        19	    1200	     4.359
  41.940	        18	    1200	     4.243
  41.960	        18	    1200	     4.243
  41.980	        18	    1200	     4.243
  42.000	        30	    1200	     5.477
  42.020	        17	    1200	     4.123
  42.040	        15	    1200	     3.873
  42.060	        31	    1200	     5.568
  42.080	        21	    1200	     4.583
  42.100	        14	    1200	     3.742
  42.120	        19	    1200	     4.359
  42.140	         9	    1200	     3.000
  42.160	        24	    1200	     4.899
  42.180	        23	    1200	     4.796
  42.200	        16	    1200	     4.000
  42.220	        17	    1200	     4.123
  42.240	        26	    1200	     5.099
  42.260	        23	    1200	     4.796
  42.280	        20	    1200	     4.472
  42.300	        15	    1200	     3.873
  42.320	        24	    1200	     4.899
  42.340	        32	    1200	     5.657
  42.360	        16	    1200	     4.000
  42.380	        21	    1200	     4.583
  42.400	        23	    1200	     4.796
  42.420	        18	    1200	     4.243
  42.440	        19	    1200	     4.359
  42.460	        22	    1200	     4.690
  42.480	        23	    1200	     4.796
  42.500	        15	    1200	     3.873
  42.520	        28	    1200	     5.292
  42.540	        20	    1200	     4.472
  42.560	        19	    1200	     4.359
  42.580	        20	    1200	     4.472
  42.600	        25	    1200	     5.000
  42.620	        25	    1200	     5.000
  42.640	        17	    1200	     4.123
  42.660	        21	    1200	     4.583
  42.680	        23	    1200	     4.796
  42.700	        18	    1200	     4.243
  42.720	        21	    1200	     4.583
  42.740	        21	    1200	     4.583
  42.760	        12	    1200	     3.464
  42.780	        16	    1200	     4.000
  42.800	        18	    1200	     4.243
  42.820	        18	    1200	     4.243
  42.840	        18	    1200	     4.243
  42.860	        23	    1200	     4.796
  42.880	        17	    1200	     4.123
  42.900	        17	    1200	     4.123
  42.920	        17	    1200	     4.123
  42.940	        22	    1200	     4.690
  42.960	        15	    1200	     3.873
  42.980	        22	    1200	     4.690
  43.000	        17	    1200	     4.123
  43.020	        13	    1200	     3.606
  43.040	        19	    1200	     4.359
  43.060	        20	    1200	     4.472
  43.080	        26	    1200	     5.099
  43.100	        21	    1200	     4.583
  43.120	        20	    1200	     4.472
  43.140	        23	    1200	     4.796
  43.160	        21	    1200	     4.583
  43.180	        16	    1200	     4.000
  43.200	        18	    1200	     4.243
  43.220	        22	    1200	     4.690
  43.240	        15	    1200	     3.873
  43.260	        11	    1200	     3.317
  43.280	        14	    1200	     3.742
  43.300	        17	    1200	     4.123
  43.320	        14	    1200	     3.742
  43.340	        14	    1200	     3.742
  43.360	        19	    1200	     4.359
  43.380	        18	    1200	     4.243
  43.400	        18	    1200	     4.243
  43.420	        19	    1200	     4.359
  43.440	        18	    1200	     4.243
  43.460	        15	    1200	     3.873
  43.480	        16	    1200	     4.000
  43.500	        31	    1200	     5.568
  43.520	        20	    1200	     4.472
  43.540	        13	    1200	     3.606
  43.560	        17	    1200	     4.123
  43.580	        27	    1200	     5.196
  43.600	        13	    1200	     3.606
  43.620	        23	    1200	     4.796
  43.640	        20	    1200	     4.472
  43.660	        11	    1200	     3.317
  43.680	        23	    1200	     4.796
  43.700	        18	    1200	     4.243
  43.720	        22	    1200	     4.690
  43.740	        17	    1200	     4.123
  43.760	        17	    1200	     4.123
  43.780	        20	    1200	     4.472
  43.800	        28	    1200	     5.292
  43.820	        17	    1200	     4.123
  43.840	        16	    1200	     4.000
  43.860	        25	    1200	     5.000
  43.880	        16	    1200	     4.000
  43.900	        16	    1200	     4.000
  43.920	        14	    1200	     3.742
  43.940	        20	    1200	     4.472
  43.960	        16	    1200	     4.000
  43.980	        20	    1200	     4.472
  44.000	        26	    1200	     5.099
  44.020	        28	    1200	     5.292
  44.040	        17	    1200	     4.123
  44.060	        30	    1200	     5.477
  44.080	        27	    1200	     5.196
  44.100	        15	    1200	     3.873
  44.120	        19	    1200	     4.359
  44.140	        19	    1200	     4.359
  44.160	        20	    1200	     4.472
  44.180	        16	    1200	     4.000
  44.200	        20	    1200	     4.472
  44.220	        21	    1200	     4.583
  44.240	        14	    1200	     3.742
  44.260	        17	    1200	     4.123
  44.280	        16	    1200	     4.000
  44.300	        32	    1200	     5.657
  44.320	        19	    1200	     4.359
  44.340	        28	    1200	     5.292
  44.360	        21	    1200	     4.583
  44.380	        16	    1200	     4.000
  44.400	        27	    1200	     5.196
  44.420	        21	    1200	     4.583
  44.440	        15	    1200	     3.873
  44.460	        19	    1200	     4.359
  44.480	        16	    1200	     4.000
  44.500	        19	    1200	     4.359
  44.520	        20	    1200	     4.472
  44.540	        22	    1200	     4.690
  44.560	        12	    1200	     3.464
  44.580	        21	    1200	     4.583
  44.600	        22	    1200	     4.690
  44.620	        16	    1200	     4.000
  44.640	        17	    1200	     4.123
  44.660	        22	    1200	     4.690
  44.680	        17	    1200	     4.123
  44.700	        19	    1200	     4.359
  44.720	        30	    1200	     5.477
  44.740	        21	    1200	     4.583
  44.760	        22	    1200	     4.690
  44.780	        22	    1200	     4.690
  44.800	        30	    1200	     5.477
  44.820	        18	    1200	     4.243
  44.840	        24	    1200	     4.899
  44.860	        23	    1200	     4.796
  44.880	        21	    1200	     4.583
  44.900	        25	    1200	     5.000
  44.920	        12	    1200	     3.464
  44.940	        21	    1200	     4.583
  44.960	        24	    1200	     4.899
  44.980	        29	    1200	     5.385
  45.000	        27	    1200	     5.196
  45.020	        23	    1200	     4.796
  45.040	        22	    1200	     4.690
  45.060	        24	    1200	     4.899
  45.080	        14	    1200	     3.742
  45.100	        23	    1200	     4.796
  45.120	        21	    1200	     4.583
  45.140	        28	    1200	     5.292
  45.160	        22	    1200	     4.690
  45.180	        22	    1200	     4.690
  45.200	        20	    1200	     4.472
  45.220	        26	    1200	     5.099
  45.240	        32	    1200	     5.657
  45.260	        31	    1200	     5.568
  45.280	        29	    1200	     5.385
  45.300	        25	    1200	     5.000
  45.320	        25	    1200	     5.000
  45.340	        24	    1200	     4.899
  45.360	        25	    1200	     5.000
  45.380	        30	    1200	     5.477
  45.400	        28	    1200	     5.292
  45.420	        36	    1200	     6.000
  45.440	        31	    1200	     5.568
  45.460	        34	    1200	     5.831
  45.480	        26	    1200	     5.099
  45.500	        33	    1200	     5.745
  45.520	        35	    1200	     5.916
  45.540	        38	    1200	     6.164
  45.560	        45	    1200	     6.708
  45.580	        42	    1200	     6.481
  45.600	        46	    1200	     6.782
  45.620	        48	    1200	     6.928
  45.640	        44	    1200	     6.633
  45.660	        41	    1200	     6.403
  45.680	        42	    1200	     6.481
  45.700	        48	    1200	     6.928
  45.720	        63	    1200	     7.937
  45.740	        67	    1200	     8.185
  45.760	        72	    1200	     8.485
  45.780	        92	    1200	     9.592
  45.800	        74	    1200	     8.602
  45.820	        85	    1200	     9.220
  45.840	        92	    1200	     9.592
  45.860	        94	    1200	     9.695
  45.880	       118	    1200	    10.863
  45.900	       111	    1200	    10.536
  45.920	       150	    1200	    12.247
  45.940	       166	    1200	    12.884
  45.960	       148	    1200	    12.166
  45.980	       194	    1200	    13.928
  46.000	       235	    1200	    15.330
  46.020	       235	    1200	    15.330
  46.040	       284	    1200	    16.852
  46.060	       356	    1200	    18.868
  46.080	       397	    1200	    19.925
  46.100	       509	    1200	    22.561
  46.120	       555	    1200	    23.558
  46.140	       638	    1200	    25.259
  46.160	       765	    1200	    27.659
  46.180	       868	    1200	    29.462
  46.200	       898	    1200	    29.967
  46.220	       979	    1200	    31.289
  46.240	      1036	    1200	    32.187
  46.260	      1034	    1200	    32.156
  46.280	       993	    1200	    31.512
  46.300	       915	    1200	    30.249
  46.320	       961	    1200	    31.000
  46.340	       900	    1200	    30.000
  46.360	       798	    1200	    28.249
  46.380	       731	    1200	    27.037
  46.400	       622	    1200	    24.940
  46.420	       575	    1200	    23.979
  46.440	       521	    1200	    22.825
  46.460	       462	    1200	    21.494
  46.480	       417	    1200	    20.421
  46.500	       318	    1200	    17.833
  46.520	       276	    1200	    16.613
  46.540	       252	    1200	    15.875
  46.560	       221	    1200	    14.866
  46.580	       157	    1200	    12.530
  46.600	       157	    1200	    12.530
  46.620	       128	    1200	    11.314
  46.640	       117	    1200	    10.817
  46.660	       106	    1200	    10.296
  46.680	        95	    1200	     9.747
  46.700	        82	    1200	     9.055
  46.720	        77	    1200	     8.775
  46.740	        75	    1200	     8.660
  46.760	        62	    1200	     7.874
  46.780	        57	    1200	     7.550
  46.800	        55	    1200	     7.416
  46.820	        44	    1200	     6.633
  46.840	        59	    1200	     7.681
  46.860	        52	    1200	     7.211
  46.880	        41	    1200	     6.403
  46.900	        32	    1200	     5.657
  46.920	        40	    1200	     6.325
  46.940	        29	    1200	     5.385
  46.960	        36	    1200	     6.000
  46.980	        28	    1200	     5.292
  47.000	        35	    1200	     5.916
  47.020	        40	    1200	     6.325
  47.040	        36	    1200	     6.000
  47.060	        26	    1200	     5.099
  47.080	        22	    1200	     4.690
  47.100	        29	    1200	     5.385
  47.120	        33	    1200	     5.745
  47.140	        30	    1200	     5.477
  47.160	        24	    1200	     4.899
  47.180	        23	    1200	     4.796
  47.200	        38	    1200	     6.164
  47.220	        30	    1200	     5.477
  47.240	        38	    1200	     6.164
  47.260	        32	    1200	     5.657
  47.280	        24	    1200	     4.899
  47.300	        36	    1200	     6.000
  47.320	        33	    1200	     5.745
  47.340	        24	    1200	     4.899
  47.360	        27	    1200	     5.196
  47.380	        23	    1200	     4.796
  47.400	        24	    1200	     4.899
  47.420	        24	    1200	     4.899
  47.440	        27	    1200	     5.196
  47.460	        16	    1200	     4.000
  47.480	        27	    1200	     5.196
  47.500	        23	    1200	     4.796
  47.520	        25	    1200	     5.000
  47.540	        32	    1200	     5.657
  47.560	        21	    1200	     4.583
  47.580	        25	    1200	     5.000
  47.600	        29	    1200	     5.385
  47.620	        26	    1200	     5.099
  47.640	        26	    1200	     5.099
  47.660	        28	    1200	     5.292
  47.680	        23	    1200	     4.796
  47.700	        15	    1200	     3.873
  47.720	        20	    1200	     4.472
  47.740	        17	    1200	     4.123
  47.760	        26	    1200	     5.099
  47.780	        21	    1200	     4.583
  47.800	        22	    1200	     4.690
  47.820	        31	    1200	     5.568
  47.840	        25	    1200	     5.000
  47.860	        21	    1200	     4.583
  47.880	        22	    1200	     4.690
  47.900	        16	    1200	     4.000
  47.920	        27	    1200	     5.196
  47.940	        25	    1200	     5.000
  47.960	        32	    1200	     5.657
  47.980	        20	    1200	     4.472
  48.000	        20	    1200	     4.472
  48.020	        21	    1200	     4.583
  48.040	        19	    1200	     4.359
  48.060	        12	    1200	     3.464
  48.080	        16	    1200	     4.000
  48.100	        17	    1200	     4.123
  48.120	        18	    1200	     4.243
  48.140	        23	    1200	     4.796
  48.160	        28	    1200	     5.292
  48.180	        25	    1200	     5.000
  48.200	        12	    1200	     3.464
  48.220	        19	    1200	     4.359
  48.240	        26	    1200	     5.099
  48.260	        23	    1200	     4.796
  48.280	        19	    1200	     4.359
  48.300	        25	    1200	     5.000
  48.320	        18	    1200	     4.243
  48.340	        15	    1200	     3.873
  48.360	        23	    1200	     4.796
  48.380	        13	    1200	     3.606
  48.400	        23	    1200	     4.796
  48.420	        26	    1200	     5.099
  48.440	        12	    1200	     3.464
  48.460	        18	    1200	     4.243
  48.480	        28	    1200	     5.292
  48.500	        15	    1200	     3.873
  48.520	        13	    1200	     3.606
  48.540	        13	    1200	     3.606
  48.560	        17	    1200	     4.123
  48.580	        17	    1200	     4.123
  48.600	        15	    1200	     3.873
  48.620	        12	    1200	     3.464
  48.640	        11	    1200	     3.317
  48.660	        21	    1200	     4.583
  48.680	        12	    1200	     3.464
  48.700	        18	    1200	     4.243
  48.720	        12	    1200	     3.464
  48.740	        16	    1200	     4.000
  48.760	        21	    1200	     4.583
  48.780	        13	    1200	     3.606
  48.800	        25	    1200	     5.000
  48.820	        13	    1200	     3.606
  48.840	        24	    1200	     4.899
  48.860	        15	    1200	     3.873
  48.880	        18	    1200	     4.243
  48.900	        17	    1200	     4.123
  48.920	        20	    1200	     4.472
  48.940	        21	    1200	     4.583
  48.960	        10	    1200	     3.162
  48.980	        21	    1200	     4.583
  49.000	        19	    1200	     4.359
  49.020	        13	    1200	     3.606
  49.040	        19	    1200	     4.359
  49.060	        16	    1200	     4.000
  49.080	        19	    1200	     4.359
  49.100	        19	    1200	     4.359
  49.120	        11	    1200	     3.317
  49.140	        16	    1200	     4.000
  49.160	        20	    1200	     4.472
  49.180	        20	    1200	     4.472
  49.200	        11	    1200	     3.317
  49.220	        17	    1200	     4.123
  49.240	        18	    1200	     4.243
  49.260	        16	    1200	     4.000
  49.280	        13	    1200	     3.606
  49.300	        15	    1200	     3.873
  49.320	        13	    1200	     3.606
  49.340	        27	    1200	     5.196
  49.360	        22	    1200	     4.690
  49.380	         9	    1200	     3.000
  49.400	        18	    1200	     4.243
  49.420	        16	    1200	     4.000
  49.440	        19	    1200	     4.359
  49.460	        14	    1200	     3.742
  49.480	        19	    1200	     4.359
  49.500	        17	    1200	     4.123
  49.520	        18	    1200	     4.243
  49.540	        16	    1200	     4.000
  49.560	        23	    1200	     4.796
  49.580	        15	    1200	     3.873
  49.600	        12	    1200	     3.464
  49.620	        17	    1200	     4.123
  49.640	        10	    1200	     3.162
  49.660	        16	    1200	     4.000
  49.680	        18	    1200	     4.243
  49.700	        13	    1200	     3.606
  49.720	        12	    1200	     3.464
  49.740	        24	    1200	     4.899
  49.760	        13	    1200	     3.606
  49.780	        13	    1200	     3.606
  49.800	        15	    1200	     3.873
  49.820	        17	    1200	     4.123
  49.840	        18	    1200	     4.243
  49.860	        24	    1200	     4.899
  49.880	        12	    1200	     3.464
  49.900	        18	    1200	     4.243
  49.920	        17	    1200	     4.123
  49.940	        22	    1200	     4.690
  49.960	        13	    1200	     3.606
  49.980	        15	    1200	     3.873
  50.000	        15	    1200	     3.873
  50.020	        13	    1200	     3.606
  50.040	        19	    1200	     4.359
  50.060	        16	    1200	     4.000
  50.080	        11	    1200	     3.317
  50.100	        12	    1200	     3.464
  50.120	        13	    1200	     3.606
  50.140	        17	    1200	     4.123
  50.160	        15	    1200	     3.873
  50.180	        13	    1200	     3.606
  50.200	        17	    1200	     4.123
  50.220	        16	    1200	     4.000
  50.240	        22	    1200	     4.690
  50.260	        17	    1200	     4.123
  50.280	        19	    1200	     4.359
  50.300	        13	    1200	     3.606
  50.320	        16	    1200	     4.000
  50.340	        14	    1200	     3.742
  50.360	        16	    1200	     4.000
  50.380	        15	    1200	     3.873
  50.400	        12	    1200	     3.464
  50.420	        15	    1200	     3.873
  50.440	        15	    1200	     3.873
  50.460	        20	    1200	     4.472
  50.480	        16	    1200	     4.000
  50.500	        12	    1200	     3.464
  50.520	        15	    1200	     3.873
  50.540	        17	    1200	     4.123
  50.560	        16	    1200	     4.000
  50.580	        10	    1200	     3.162
  50.600	        14	    1200	     3.742
  50.620	        19	    1200	     4.359
  50.640	        17	    1200	     4.123
  50.660	         9	    1200	     3.000
  50.680	        18	    1200	     4.243
  50.700	        16	    1200	     4.000
  50.720	        17	    1200	     4.123
  50.740	        16	    1200	     4.000
  50.760	        12	    1200	     3.464
  50.780	        25	    1200	     5.000
  50.800	        17	    1200	     4.123
  50.820	        10	    1200	     3.162
  50.840	        14	    1200	     3.742
  50.860	        21	    1200	     4.583
  50.880	        13	    1200	     3.606
  50.900	        15	    1200	     3.873
  50.920	        17	    1200	     4.123
  50.940	         7	    1200	     2.646
  50.960	        16	    1200	     4.000
  50.980	        16	    1200	     4.000
  51.000	        12	    1200	     3.464
  51.020	         6	    1200	     2.449
  51.040	        10	    1200	     3.162
  51.060	        12	    1200	     3.464
  51.080	        13	    1200	     3.606
  51.100	        28	    1200	     5.292
  51.120	        15	    1200	     3.873
  51.140	        21	    1200	     4.583
  51.160	        12	    1200	     3.464
  51.180	        13	    1200	     3.606
  51.200	        12	    1200	     3.464
  51.220	        16	    1200	     4.000
  51.240	        16	    1200	     4.000
  51.260	        19	    1200	     4.359
  51.280	        19	    1200	     4.359
  51.300	        14	    1200	     3.742
  51.320	        12	    1200	     3.464
  51.340	        18	    1200	     4.243
  51.360	        20	    1200	     4.472
  51.380	        11	    1200	     3.317
  51.400	        13	    1200	     3.606
  51.420	        16	    1200	     4.000
  51.440	         5	    1200	     2.236
  51.460	        24	    1200	     4.899
  51.480	        13	    1200	     3.606
  51.500	        11	    1200	     3.317
  51.520	        18	    1200	     4.243
  51.540	        19	    1200	     4.359
  51.560	        18	    1200	     4.243
  51.580	        16	    1200	     4.000
  51.600	        17	    1200	     4.123
  51.620	        20	    1200	     4.472
  51.640	        15	    1200	     3.873
  51.660	        18	    1200	     4.243
  51.680	        20	    1200	     4.472
  51.700	        26	    1200	     5.099
  51.720	        20	    1200	     4.472
  51.740	        20	    1200	     4.472
  51.760	        23	    1200	     4.796
  51.780	        23	    1200	     4.796
  51.800	        22	    1200	     4.690
  51.820	        16	    1200	     4.000
  51.840	        23	    1200	     4.796
  51.860	        24	    1200	     4.899
  51.880	        24	    1200	     4.899
  51.900	        32	    1200	     5.657
  51.920	        35	    1200	     5.916
  51.940	        28	    1200	     5.292
  51.960	        36	    1200	     6.000
  51.980	        46	    1200	     6.782
  52.000	        38	    1200	     6.164
  52.020	        42	    1200	     6.481
  52.040	        41	    1200	     6.403
  52.060	        45	    1200	     6.708
  52.080	        54	    1200	     7.348
  52.100	        67	    1200	     8.185
  52.120	        56	    1200	     7.483
  52.140	        78	    1200	     8.832
  52.160	        68	    1200	     8.246
  52.180	        72	    1200	     8.485
  52.200	        65	    1200	     8.062
  52.220	        55	    1200	     7.416
  52.240	        46	    1200	     6.782
  52.260	        51	    1200	     7.141
  52.280	        51	    1200	     7.141
  52.300	        49	    1200	     7.000
  52.320	        45	    1200	     6.708
  52.340	        35	    1200	     5.916
  52.360	        37	    1200	     6.083
  52.380	        33	    1200	     5.745
  52.400	        23	    1200	     4.796
  52.420	        34	    1200	     5.831
  52.440	        26	    1200	     5.099
  52.460	        22	    1200	     4.690
  52.480	        24	    1200	     4.899
  52.500	        21	    1200	     4.583
  52.520	        16	    1200	     4.000
  52.540	        29	    1200	     5.385
  52.560	        17	    1200	     4.123
  52.580	        10	    1200	     3.162
  52.600	        19	    1200	     4.359
  52.620	        12	    1200	     3.464
  52.640	        18	    1200	     4.243
  52.660	        18	    1200	     4.243
  52.680	        20	    1200	     4.472
  52.700	        14	    1200	     3.742
  52.720	        12	    1200	     3.464
  52.740	        22	    1200	     4.690
  52.760	        18	    1200	     4.243
  52.780	        14	    1200	     3.742
  52.800	        17	    1200	     4.123
  52.820	        15	    1200	     3.873
  52.840	        15	    1200	     3.873
  52.860	        14	    1200	     3.742
  52.880	        19	    1200	     4.359
  52.900	        18	    1200	     4.243
  52.920	        24	    1200	     4.899
  52.940	        14	    1200	     3.742
  52.960	        22	    1200	     4.690
  52.980	        17	    1200	     4.123
  53.000	        10	    1200	     3.162
  53.020	        17	    1200	     4.123
  53.040	        14	    1200	     3.742
  53.060	         8	    1200	     2.828
  53.080	        12	    1200	     3.464
  53.100	        17	    1200	     4.123
  53.120	        17	    1200	     4.123
  53.140	        13	    1200	     3.606
  53.160	        18	    1200	     4.243
  53.180	        12	    1200	     3.464
  53.200	         7	    1200	     2.646
  53.220	         5	    1200	     2.236
  53.240	        18	    1200	     4.243
  53.260	        16	    1200	     4.000
  53.280	        21	    1200	     4.583
  53.300	        11	    1200	     3.317
  53.320	        20	    1200	     4.472
  53.340	        16	    1200	     4.000
  53.360	        15	    1200	     3.873
  53.380	        12	    1200	     3.464
  53.400	        17	    1200	     4.123
  53.420	        15	    1200	     3.873
  53.440	        13	    1200	     3.606
  53.460	        18	    1200	     4.243
  53.480	        13	    1200	     3.606
  53.500	        16	    1200	     4.000
  53.520	        18	    1200	     4.243
  53.540	        12	    1200	     3.464
  53.560	        14	    1200	     3.742
  53.580	        15	    1200	     3.873
  53.600	        12	    1200	     3.464
  53.620	        17	    1200	     4.123
  53.640	        15	    1200	     3.873
  53.660	        20	    1200	     4.472
  53.680	        12	    1200	     3.464
  53.700	        23	    1200	     4.796
  53.720	        16	    1200	     4.000
  53.740	        11	    1200	     3.317
  53.760	        16	    1200	     4.000
  53.780	        19	    1200	     4.359
  53.800	        12	    1200	     3.464
  53.820	        18	    1200	     4.243
  53.840	        10	    1200	     3.162
  53.860	        16	    1200	     4.000
  53.880	        13	    1200	     3.606
  53.900	        15	    1200	     3.873
  53.920	        14	    1200	     3.742
  53.940	        20	    1200	     4.472
  53.960	         8	    1200	     2.828
  53.980	        16	    1200	     4.000
  54.000	        11	    1200	     3.317
  54.020	        13	    1200	     3.606
  54.040	        16	    1200	     4.000
  54.060	        18	    1200	     4.243
  54.080	        19	    1200	     4.359
  54.100	        15	    1200	     3.873
  54.120	        16	    1200	     4.000
  54.140	        14	    1200	     3.742
  54.160	        19	    1200	     4.359
  54.180	         8	    1200	     2.828
  54.200	         8	    1200	     2.828
  54.220	        20	    1200	     4.472
  54.240	        18	    1200	     4.243
  54.260	        14	    1200	     3.742
  54.280	        17	    1200	     4.123
  54.300	        17	    1200	     4.123
  54.320	        15	    1200	     3.873
  54.340	        12	    1200	     3.464
  54.360	        20	    1200	     4.472
  54.380	        11	    1200	     3.317
  54.400	        13	    1200	     3.606
  54.420	        15	    1200	     3.873
  54.440	        19	    1200	     4.359
  54.460	        15	    1200	     3.873
  54.480	        16	    1200	     4.000
  54.500	        23	    1200	     4.796
  54.520	        19	    1200	     4.359
  54.540	        20	    1200	     4.472
  54.560	         9	    1200	     3.000
  54.580	        13	    1200	     3.606
  54.600	        17	    1200	     4.123
  54.620	        20	    1200	     4.472
  54.640	        14	    1200	     3.742
  54.660	        12	    1200	     3.464
  54.680	        20	    1200	     4.472
  54.700	        14	    1200	     3.742
  54.720	        14	    1200	     3.742
  54.740	        14	    1200	     3.742
  54.760	        11	    1200	     3.317
  54.780	        17	    1200	     4.123
  54.800	        23	    1200	     4.796
  54.820	        15	    1200	     3.873
  54.840	        17	    1200	     4.123
  54.860	        18	    1200	     4.243
  54.880	        13	    1200	     3.606
  54.900	        16	    1200	     4.000
  54.920	        27	    1200	     5.196
  54.940	        20	    1200	     4.472
  54.960	        19	    1200	     4.359
  54.980	        18	    1200	     4.243
  55.000	        16	    1200	     4.000
  55.020	        20	    1200	     4.472
  55.040	        23	    1200	     4.796
  55.060	        18	    1200	     4.243
  55.080	         9	    1200	     3.000
  55.100	        15	    1200	     3.873
  55.120	        13	    1200	     3.606
  55.140	        22	    1200	     4.690
  55.160	        12	    1200	     3.464
  55.180	        14	    1200	     3.742
  55.200	        14	    1200	     3.742
  55.220	        24	    1200	     4.899
  55.240	        16	    1200	     4.000
  55.260	        17	    1200	     4.123
  55.280	        21	    1200	     4.583
  55.300	        14	    1200	     3.742
  55.320	        15	    1200	     3.873
  55.340	        20	    1200	     4.472
  55.360	        16	    1200	     4.000
  55.380	        19	    1200	     4.359
  55.400	        15	    1200	     3.873
  55.420	        24	    1200	     4.899
  55.440	        14	    1200	     3.742
  55.460	        23	    1200	     4.796
  55.480	        16	    1200	     4.000
  55.500	        25	    1200	     5.000
  55.520	        22	    1200	     4.690
  55.540	        22	    1200	     4.690
  55.560	        15	    1200	     3.873
  55.580	        14	    1200	     3.742
  55.600	        15	    1200	     3.873
  55.620	        21	    1200	     4.583
  55.640	        16	    1200	     4.000
  55.660	        26	    1200	     5.099
  55.680	        26	    1200	     5.099
  55.700	        21	    1200	     4.583
  55.720	        18	    1200	     4.243
  55.740	        20	    1200	     4.472
  55.760	        20	    1200	     4.472
  55.780	        17	    1200	     4.123
  55.800	        16	    1200	     4.000
  55.820	        19	    1200	     4.359
  55.840	        20	    1200	     4.472
  55.860	        21	    1200	     4.583
  55.880	        16	    1200	     4.000
  55.900	        13	    1200	     3.606
  55.920	        22	    1200	     4.690
  55.940	        14	    1200	     3.742
  55.960	        17	    1200	     4.123
  55.980	        17	    1200	     4.123
  56.000	        13	    1200	     3.606
  56.020	        13	    1200	     3.606
  56.040	        22	    1200	     4.690
  56.060	        22	    1200	     4.690
  56.080	        26	    1200	     5.099
  56.100	        14	    1200	     3.742
  56.120	        27	    1200	     5.196
  56.140	        26	    1200	     5.099
  56.160	        18	    1200	     4.243
  56.180	        27	    1200	     5.196
  56.200	        18	    1200	     4.243
  56.220	        21	    1200	     4.583
  56.240	        22	    1200	     4.690
  56.260	        23	    1200	     4.796
  56.280	        18	    1200	     4.243
  56.300	        24	    1200	     4.899
  56.320	        23	    1200	     4.796
  56.340	        25	    1200	     5.000
  56.360	        25	    1200	     5.000
  56.380	        19	    1200	     4.359
  56.400	        27	    1200	     5.196
  56.420	        19	    1200	     4.359
  56.440	        26	    1200	     5.099
  56.460	        25	    1200	     5.000
  56.480	        26	    1200	     5.099
  56.500	        34	    1200	     5.831
  56.520	        34	    1200	     5.831
  56.540	        21	    1200	     4.583
  56.560	        26	    1200	     5.099
  56.580	        35	    1200	     5.916
  56.600	        24	    1200	     4.899
  56.620	        47	    1200	     6.856
  56.640	        39	    1200	     6.245
  56.660	        34	    1200	     5.831
  56.680	        32	    1200	     5.657
  56.700	        33	    1200	     5.745
  56.720	        44	    1200	     6.633
  56.740	        38	    1200	     6.164
  56.760	        51	    1200	     7.141
  56.780	        43	    1200	     6.557
  56.800	        30	    1200	     5.477
  56.820	        38	    1200	     6.164
  56.840	        51	    1200	     7.141
  56.860	        36	    1200	     6.000
  56.880	        35	    1200	     5.916
  56.900	        44	    1200	     6.633
  56.920	        52	    1200	     7.211
  56.940	        47	    1200	     6.856
  56.960	        53	    1200	     7.280
  56.980	        55	    1200	     7.416
  57.000	        57	    1200	     7.550
  57.020	        47	    1200	     6.856
  57.040	        61	    1200	     7.810
  57.060	        76	    1200	     8.718
  57.080	        80	    1200	     8.944
  57.100	        70	    1200	     8.367
  57.120	        69	    1200	     8.307
  57.140	       101	    1200	    10.050
  57.160	       105	    1200	    10.247
  57.180	       110	    1200	    10.488
  57.200	       123	    1200	    11.091
  57.220	       133	    1200	    11.533
  57.240	       146	    1200	    12.083
  57.260	       181	    1200	    13.454
  57.280	       184	    1200	    13.565
  57.300	       210	    1200	    14.491
  57.320	       262	    1200	    16.186
  57.340	       321	    1200	    17.916
  57.360	       327	    1200	    18.083
  57.380	       411	    1200	    20.273
  57.400	       465	    1200	    21.564
  57.420	       534	    1200	    23.108
  57.440	       623	    1200	    24.960
  57.460	       727	    1200	    26.963
  57.480	       747	    1200	    27.331
  57.500	       832	    1200	    28.844
  57.520	       807	    1200	    28.408
  57.540	       885	    1200	    29.749
  57.560	       899	    1200	    29.983
  57.580	       912	    1200	    30.199
  57.600	       918	    1200	    30.299
  57.620	       875	    1200	    29.580
  57.640	       860	    1200	    29.326
  57.660	       805	    1200	    28.373
  57.680	       737	    1200	    27.148
  57.700	       708	    1200	    26.608
  57.720	       686	    1200	    26.192
  57.740	       671	    1200	    25.904
  57.760	       569	    1200	    23.854
  57.780	       517	    1200	    22.738
  57.800	       478	    1200	    21.863
  57.820	       432	    1200	    20.785
  57.840	       319	    1200	    17.861
  57.860	       303	    1200	    17.407
  57.880	       286	    1200	    16.912
  57.900	       238	    1200	    15.427
  57.920	       208	    1200	    14.422
  57.940	       185	    1200	    13.601
  57.960	       160	    1200	    12.649
  57.980	       158	    1200	    12.570
  58.000	       128	    1200	    11.314
  58.020	       111	    1200	    10.536
  58.040	        82	    1200	     9.055
  58.060	        82	    1200	     9.055
  58.080	        80	    1200	     8.944
  58.100	        64	    1200	     8.000
  58.120	        71	    1200	     8.426
  58.140	        50	    1200	     7.071
  58.160	        52	    1200	     7.211
  58.180	        47	    1200	     6.856
  58.200	        46	    1200	     6.782
  58.220	        41	    1200	     6.403
  58.240	        48	    1200	     6.928
  58.260	        47	    1200	     6.856
  58.280	        39	    1200	     6.245
  58.300	        45	    1200	     6.708
  58.320	        39	    1200	     6.245
  58.340	        38	    1200	     6.164
  58.360	        40	    1200	     6.325
  58.380	        29	    1200	     5.385
  58.400	        36	    1200	     6.000
  58.420	        25	    1200	     5.000
  58.440	        25	    1200	     5.000
  58.460	        30	    1200	     5.477
  58.480	        46	    1200	     6.782
  58.500	        31	    1200	     5.568
  58.520	        17	    1200	     4.123
  58.540	        32	    1200	     5.657
  58.560	        31	    1200	     5.568
  58.580	        28	    1200	     5.292
  58.600	        38	    1200	     6.164
  58.620	        17	    1200	     4.123
  58.640	        35	    1200	     5.916
  58.660	        20	    1200	     4.472
  58.680	        32	    1200	     5.657
  58.700	        25	    1200	     5.000
  58.720	        19	    1200	     4.359
  58.740	        25	    1200	     5.000
  58.760	        18	    1200	     4.243
  58.780	        30	    1200	     5.477
  58.800	        31	    1200	     5.568
  58.820	        22	    1200	     4.690
  58.840	        26	    1200	     5.099
  58.860	        34	    1200	     5.831
  58.880	        22	    1200	     4.690
  58.900	        21	    1200	     4.583
  58.920	        23	    1200	     4.796
  58.940	        24	    1200	     4.899
  58.960	        25	    1200	     5.000
  58.980	        22	    1200	     4.690
  59.000	        16	    1200	     4.000
  59.020	        17	    1200	     4.123
  59.040	        25	    1200	     5.000
  59.060	        15	    1200	     3.873
  59.080	        25	    1200	     5.000
  59.100	        14	    1200	     3.742
  59.120	        19	    1200	     4.359
  59.140	        15	    1200	     3.873
  59.160	        22	    1200	     4.690
  59.180	        19	    1200	     4.359
  59.200	         8	    1200	     2.828
  59.220	        27	    1200	     5.196
  59.240	        19	    1200	     4.359
  59.260	        21	    1200	     4.583
  59.280	        15	    1200	     3.873
  59.300	        21	    1200	     4.583
  59.320	        24	    1200	     4.899
  59.340	        15	    1200	     3.873
  59.360	        23	    1200	     4.796
  59.380	        24	    1200	     4.899
  59.400	        14	    1200	     3.742
  59.420	        22	    1200	     4.690
  59.440	        13	    1200	     3.606
  59.460	        25	    1200	     5.000
  59.480	        21	    1200	     4.583
  59.500	        21	    1200	     4.583
  59.520	        18	    1200	     4.243
  59.540	        19	    1200	     4.359
  59.560	        20	    1200	     4.472
  59.580	        19	    1200	     4.359
  59.600	        17	    1200	     4.123
  59.620	        16	    1200	     4.000
  59.640	        15	    1200	     3.873
  59.660	        23	    1200	     4.796
  59.680	        20	    1200	     4.472
  59.700	        26	    1200	     5.099
  59.720	        22	    1200	     4.690
  59.740	        22	    1200	     4.690
  59.760	        19	    1200	     4.359
  59.780	        15	    1200	     3.873
  59.800	        26	    1200	     5.099
  59.820	        14	    1200	     3.742
  59.840	        20	    1200	     4.472
  59.860	        13	    1200	     3.606
  59.880	        21	    1200	     4.583
  59.900	        24	    1200	     4.899
  59.920	        19	    1200	     4.359
  59.940	        15	    1200	     3.873
  59.960	        25	    1200	     5.000
  59.980	        20	    1200	     4.472
  60.000	        26	    1200	     5.099
  60.020	        16	    1200	     4.000
  60.040	        15	    1200	     3.873
  60.060	        11	    1200	     3.317
  60.080	        24	    1200	     4.899
  60.100	        20	    1200	     4.472
  60.120	        19	    1200	     4.359
  60.140	        20	    1200	     4.472
  60.160	        15	    1200	     3.873
  60.180	        20	    1200	     4.472
  60.200	        17	    1200	     4.123
  60.220	        19	    1200	     4.359
  60.240	        25	    1200	     5.000
  60.260	        17	    1200	     4.123
  60.280	        16	    1200	     4.000
  60.300	        18	    1200	     4.243
  60.320	        20	    1200	     4.472
  60.340	        16	    1200	     4.000
  60.360	        18	    1200	     4.243
  60.380	        18	    1200	     4.243
  60.400	        19	    1200	     4.359
  60.420	        17	    1200	     4.123
  60.440	        21	    1200	     4.583
  60.460	        17	    1200	     4.123
  60.480	        14	    1200	     3.742
  60.500	        18	    1200	     4.243
  60.520	        22	    1200	     4.690
  60.540	        18	    1200	     4.243
  60.560	        15	    1200	     3.873
  60.580	        24	    1200	     4.899
  60.600	        18	    1200	     4.243
  60.620	        19	    1200	     4.359
  60.640	        18	    1200	     4.243
  60.660	        22	    1200	     4.690
  60.680	        13	    1200	     3.606
  60.700	        17	    1200	     4.123
  60.720	        17	    1200	     4.123
  60.740	        13	    1200	     3.606
  60.760	        22	    1200	     4.690
  60.780	        21	    1200	     4.583
  60.800	        17	    1200	     4.123
  60.820	        12	    1200	     3.464
  60.840	        18	    1200	     4.243
  60.860	        23	    1200	     4.796
  60.880	        18	    1200	     4.243
  60.900	        17	    1200	     4.123
  60.920	        16	    1200	     4.000
  60.940	        13	    1200	     3.606
  60.960	        19	    1200	     4.359
  60.980	        15	    1200	     3.873
  61.000	        15	    1200	     3.873
  61.020	        14	    1200	     3.742
  61.040	        14	    1200	     3.742
  61.060	        23	    1200	     4.796
  61.080	        16	    1200	     4.000
  61.100	        16	    1200	     4.000
  61.120	        17	    1200	     4.123
  61.140	        14	    1200	     3.742
  61.160	        18	    1200	     4.243
  61.180	        17	    1200	     4.123
  61.200	        18	    1200	     4.243
  61.220	        16	    1200	     4.000
  61.240	        17	    1200	     4.123
  61.260	        11	    1200	     3.317
  61.280	        15	    1200	     3.873
  61.300	        20	    1200	     4.472
  61.320	        20	    1200	     4.472
  61.340	        12	    1200	     3.464
  61.360	        18	    1200	     4.243
  61.380	        20	    1200	     4.472
  61.400	        17	    1200	     4.123
  61.420	        18	    1200	     4.243
  61.440	        20	    1200	     4.472
  61.460	        15	    1200	     3.873
  61.480	        19	    1200	     4.359
  61.500	        13	    1200	     3.606
  61.520	        10	    1200	     3.162
  61.540	        16	    1200	     4.000
  61.560	        12	    1200	     3.464
  61.580	        18	    1200	     4.243
  61.600	        19	    1200	     4.359
  61.620	        11	    1200	     3.317
  61.640	        12	    1200	     3.464
  61.660	        14	    1200	     3.742
  61.680	        18	    1200	     4.243
  61.700	        25	    1200	     5.000
  61.720	        15	    1200	     3.873
  61.740	        14	    1200	     3.742
  61.760	        17	    1200	     4.123
  61.780	        16	    1200	     4.000
  61.800	        17	    1200	     4.123
  61.820	        14	    1200	     3.742
  61.840	        16	    1200	     4.000
  61.860	        14	    1200	     3.742
  61.880	        23	    1200	     4.796
  61.900	        20	    1200	     4.472
  61.920	        19	    1200	     4.359
  61.940	        10	    1200	     3.162
  61.960	        19	    1200	     4.359
  61.980	        11	    1200	     3.317
  62.000	        28	    1200	     5.292
  62.020	        18	    1200	     4.243
  62.040	        15	    1200	     3.873
  62.060	        13	    1200	     3.606
  62.080	        15	    1200	     3.873
  62.100	        19	    1200	     4.359
  62.120	        20	    1200	     4.472
  62.140	        17	    1200	     4.123
  62.160	        19	    1200	     4.359
  62.180	        18	    1200	     4.243
  62.200	        24	    1200	     4.899
  62.220	        16	    1200	     4.000
  62.240	        16	    1200	     4.000
  62.260	        19	    1200	     4.359
  62.280	        15	    1200	     3.873
  62.300	        15	    1200	     3.873
  62.320	        17	    1200	     4.123
  62.340	        12	    1200	     3.464
  62.360	        19	    1200	     4.359
  62.380	        18	    1200	     4.243
  62.400	        30	    1200	     5.477
  62.420	        25	    1200	     5.000
  62.440	        15	    1200	     3.873
  62.460	        13	    1200	     3.606
  62.480	        17	    1200	     4.123
  62.500	        15	    1200	     3.873
  62.520	        18	    1200	     4.243
  62.540	        20	    1200	     4.472
  62.560	        21	    1200	     4.583
  62.580	        14	    1200	     3.742
  62.600	        13	    1200	     3.606
  62.620	        21	    1200	     4.583
  62.640	        20	    1200	     4.472
  62.660	        13	    1200	     3.606
  62.680	        15	    1200	     3.873
  62.700	        21	    1200	     4.583
  62.720	        16	    1200	     4.000
  62.740	        17	    1200	     4.123
  62.760	        18	    1200	     4.243
  62.780	        19	    1200	     4.359
  62.800	        13	    1200	     3.606
  62.820	        19	    1200	     4.359
  62.840	        19	    1200	     4.359
  62.860	        24	    1200	     4.899
  62.880	        22	    1200	     4.690
  62.900	        23	    1200	     4.796
  62.920	        18	    1200	     4.243
  62.940	        12	    1200	     3.464
  62.960	        25	    1200	     5.000
  62.980	        14	    1200	     3.742
  63.000	        23	    1200	     4.796
  63.020	        22	    1200	     4.690
  63.040	        24	    1200	     4.899
  63.060	        16	    1200	     4.000
  63.080	        19	    1200	     4.359
  63.100	        21	    1200	     4.583
  63.120	        19	    1200	     4.359
  63.140	        12	    1200	     3.464
  63.160	        14	    1200	     3.742
  63.180	        15	    1200	     3.873
  63.200	        13	    1200	     3.606
  63.220	        14	    1200	     3.742
  63.240	        24	    1200	     4.899
  63.260	        19	    1200	     4.359
  63.280	        16	    1200	     4.000
  63.300	        25	    1200	     5.000
  63.320	        18	    1200	     4.243
  63.340	         9	    1200	     3.000
  63.360	        17	    1200	     4.123
  63.380	        24	    1200	     4.899
  63.400	        14	    1200	     3.742
  63.420	        13	    1200	     3.606
  63.440	        23	    1200	     4.796
  63.460	         8	    1200	     2.828
  63.480	        27	    1200	     5.196
  63.500	        23	    1200	     4.796
  63.520	        28	    1200	     5.292
  63.540	        13	    1200	     3.606
  63.560	        19	    1200	     4.359
  63.580	        20	    1200	     4.472
  63.600	        26	    1200	     5.099
  63.620	        24	    1200	     4.899
  63.640	        22	    1200	     4.690
  63.660	        18	    1200	     4.243
  63.680	        22	    1200	     4.690
  63.700	        21	    1200	     4.583
  63.720	        16	    1200	     4.000
  63.740	        28	    1200	     5.292
  63.760	        21	    1200	     4.583
  63.780	        20	    1200	     4.472
  63.800	        16	    1200	     4.000
  63.820	        19	    1200	     4.359
  63.840	        17	    1200	     4.123
  63.860	        20	    1200	     4.472
  63.880	        22	    1200	     4.690
  63.900	        24	    1200	     4.899
  63.920	        22	    1200	     4.690
  63.940	        20	    1200	     4.472
  63.960	        16	    1200	     4.000
  63.980	        23	    1200	     4.796
  64.000	        21	    1200	     4.583
  64.020	        21	    1200	     4.583
  64.040	        22	    1200	     4.690
  64.060	        23	    1200	     4.796
  64.080	        19	    1200	     4.359
  64.100	        14	    1200	     3.742
  64.120	        23	    1200	     4.796
  64.140	        15	    1200	     3.873
  64.160	        19	    1200	     4.359
  64.180	        31	    1200	     5.568
  64.200	        16	    1200	     4.000
  64.220	        17	    1200	     4.123
  64.240	        23	    1200	     4.796
  64.260	        19	    1200	     4.359
  64.280	        16	    1200	     4.000
  64.300	        25	    1200	     5.000
  64.320	        19	    1200	     4.359
  64.340	        17	    1200	     4.123
  64.360	        23	    1200	     4.796
  64.380	        13	    1200	     3.606
  64.400	        21	    1200	     4.583
  64.420	        16	    1200	     4.000
  64.440	        13	    1200	     3.606
  64.460	        15	    1200	     3.873
  64.480	        30	    1200	     5.477
  64.500	        15	    1200	     3.873
  64.520	        21	    1200	     4.583
  64.540	        12	    1200	     3.464
  64.560	        21	    1200	     4.583
  64.580	        19	    1200	     4.359
  64.600	        18	    1200	     4.243
  64.620	        10	    1200	     3.162
  64.640	        14	    1200	     3.742
  64.660	        17	    1200	     4.123
  64.680	        17	    1200	     4.123
  64.700	        13	    1200	     3.606
  64.720	        19	    1200	     4.359
  64.740	        11	    1200	     3.317
  64.760	        17	    1200	     4.123
  64.780	        15	    1200	     3.873
  64.800	        12	    1200	     3.464
  64.820	        18	    1200	     4.243
  64.840	        21	    1200	     4.583
  64.860	        10	    1200	     3.162
  64.880	        20	    1200	     4.472
  64.900	        14	    1200	     3.742
  64.920	        19	    1200	     4.359
  64.940	        19	    1200	     4.359
  64.960	        21	    1200	     4.583
  64.980	        20	    1200	     4.472
  65.000	        18	    1200	     4.243
  65.020	        18	    1200	     4.243
  65.040	        16	    1200	     4.000
  65.060	        15	    1200	     3.873
  65.080	        16	    1200	     4.000
  65.100	        10	    1200	     3.162
  65.120	        18	    1200	     4.243
  65.140	        19	    1200	     4.359
  65.160	        23	    1200	     4.796
  65.180	        23	    1200	     4.796
  65.200	        11	    1200	     3.317
  65.220	        15	    1200	     3.873
  65.240	        15	    1200	     3.873
  65.260	        26	    1200	     5.099
  65.280	        20	    1200	     4.472
  65.300	        21	    1200	     4.583
  65.320	        15	    1200	     3.873
  65.340	        16	    1200	     4.000
  65.360	        17	    1200	     4.123
  65.380	        21	    1200	     4.583
  65.400	         6	    1200	     2.449
  65.420	        21	    1200	     4.583
  65.440	        14	    1200	     3.742
  65.460	        20	    1200	     4.472
  65.480	        14	    1200	     3.742
  65.500	        16	    1200	     4.000
  65.520	         8	    1200	     2.828
  65.540	        17	    1200	     4.123
  65.560	        23	    1200	     4.796
  65.580	        19	    1200	     4.359
  65.600	        22	    1200	     4.690
  65.620	        19	    1200	     4.359
  65.640	        12	    1200	     3.464
  65.660	        15	    1200	     3.873
  65.680	        13	    1200	     3.606
  65.700	        17	    1200	     4.123
  65.720	        17	    1200	     4.123
  65.740	        10	    1200	     3.162
  65.760	        25	    1200	     5.000
  65.780	        17	    1200	     4.123
  65.800	        23	    1200	     4.796
  65.820	        18	    1200	     4.243
  65.840	        14	    1200	     3.742
  65.860	        15	    1200	     3.873
  65.880	        16	    1200	     4.000
  65.900	        15	    1200	     3.873
  65.920	        29	    1200	     5.385
  65.940	        13	    1200	     3.606
  65.960	        17	    1200	     4.123
  65.980	        24	    1200	     4.899
  66.000	        11	    1200	     3.317
  66.020	        13	    1200	     3.606
  66.040	        15	    1200	     3.873
  66.060	        21	    1200	     4.583
  66.080	        18	    1200	     4.243
  66.100	        14	    1200	     3.742
  66.120	        10	    1200	     3.162
  66.140	        14	    1200	     3.742
  66.160	        15	    1200	     3.873
  66.180	        14	    1200	     3.742
  66.200	        20	    1200	     4.472
  66.220	        23	    1200	     4.796
  66.240	        22	    1200	     4.690
  66.260	        15	    1200	     3.873
  66.280	        28	    1200	     5.292
  66.300	        13	    1200	     3.606
  66.320	        24	    1200	     4.899
  66.340	        18	    1200	     4.243
  66.360	        27	    1200	     5.196
  66.380	        28	    1200	     5.292
  66.400	        18	    1200	     4.243
  66.420	        21	    1200	     4.583
  66.440	        27	    1200	     5.196
  66.460	        20	    1200	     4.472
  66.480	        16	    1200	     4.000
  66.500	        19	    1200	     4.359
  66.520	        15	    1200	     3.873
  66.540	        21	    1200	     4.583
  66.560	        28	    1200	     5.292
  66.580	        16	    1200	     4.000
  66.600	        22	    1200	     4.690
  66.620	        23	    1200	     4.796
  66.640	        26	    1200	     5.099
  66.660	        26	    1200	     5.099
  66.680	        25	    1200	     5.000
  66.700	        22	    1200	     4.690
  66.720	        19	    1200	     4.359
  66.740	        26	    1200	     5.099
  66.760	        36	    1200	     6.000
  66.780	        29	    1200	     5.385
  66.800	        19	    1200	     4.359
  66.820	        24	    1200	     4.899
  66.840	        32	    1200	     5.657
  66.860	        34	    1200	     5.831
  66.880	        24	    1200	     4.899
  66.900	        26	    1200	     5.099
  66.920	        31	    1200	     5.568
  66.940	        28	    1200	     5.292
  66.960	        20	    1200	     4.472
  66.980	        39	    1200	     6.245
  67.000	        34	    1200	     5.831
  67.020	        41	    1200	     6.403
  67.040	        42	    1200	     6.481
  67.060	        39	    1200	     6.245
  67.080	        38	    1200	     6.164
  67.100	        60	    1200	     7.746
  67.120	        38	    1200	     6.164
  67.140	        69	    1200	     8.307
  67.160	        56	    1200	     7.483
  67.180	        67	    1200	     8.185
  67.200	        71	    1200	     8.426
  67.220	        64	    1200	     8.000
  67.240	       105	    1200	    10.247
  67.260	        84	    1200	     9.165
  67.280	        96	    1200	     9.798
  67.300	       110	    1200	    10.488
  67.320	       127	    1200	    11.269
  67.340	       110	    1200	    10.488
  67.360	       149	    1200	    12.207
  67.380	       174	    1200	    13.191
  67.400	       184	    1200	    13.565
  67.420	       243	    1200	    15.588
  67.440	       254	    1200	    15.937
  67.460	       297	    1200	    17.234
  67.480	       333	    1200	    18.248
  67.500	       333	    1200	    18.248
  67.520	       365	    1200	    19.105
  67.540	       418	    1200	    20.445
  67.560	       420	    1200	    20.494
  67.580	       428	    1200	    20.688
  67.600	       422	    1200	    20.543
  67.620	       433	    1200	    20.809
  67.640	       453	    1200	    21.284
  67.660	       451	    1200	    21.237
  67.680	       456	    1200	    21.354
  67.700	       431	    1200	    20.761
  67.720	       409	    1200	    20.224
  67.740	       372	    1200	    19.287
  67.760	       347	    1200	    18.628
  67.780	       338	    1200	    18.385
  67.800	       324	    1200	    18.000
  67.820	       299	    1200	    17.292
  67.840	       295	    1200	    17.176
  67.860	       219	    1200	    14.799
  67.880	       260	    1200	    16.125
  67.900	       220	    1200	    14.832
  67.920	       177	    1200	    13.304
  67.940	       174	    1200	    13.191
  67.960	       153	    1200	    12.369
  67.980	       145	    1200	    12.042
  68.000	       127	    1200	    11.269
  68.020	       107	    1200	    10.344
  68.040	        94	    1200	     9.695
  68.060	        94	    1200	     9.695
  68.080	        78	    1200	     8.832
  68.100	        54	    1200	     7.348
  68.120	        67	    1200	     8.185
  68.140	        54	    1200	     7.348
  68.160	        50	    1200	     7.071
  68.180	        54	    1200	     7.348
  68.200	        42	    1200	     6.481
  68.220	        52	    1200	     7.211
  68.240	        35	    1200	     5.916
  68.260	        41	    1200	     6.403
  68.280	        34	    1200	     5.831
  68.300	        29	    1200	     5.385
  68.320	        36	    1200	     6.000
  68.340	        18	    1200	     4.243
  68.360	        31	    1200	     5.568
  68.380	        29	    1200	     5.385
  68.400	        34	    1200	     5.831
  68.420	        28	    1200	     5.292
  68.440	        32	    1200	     5.657
  68.460	        28	    1200	     5.292
  68.480	        21	    1200	     4.583
  68.500	        25	    1200	     5.000
  68.520	        18	    1200	     4.243
  68.540	        15	    1200	     3.873
  68.560	        23	    1200	     4.796
  68.580	        23	    1200	     4.796
  68.600	        22	    1200	     4.690
  68.620	        31	    1200	     5.568
  68.640	        27	    1200	     5.196
  68.660	        26	    1200	     5.099
  68.680	        27	    1200	     5.196
  68.700	        25	    1200	     5.000
  68.720	        18	    1200	     4.243
  68.740	        23	    1200	     4.796
  68.760	        26	    1200	     5.099
  68.780	        18	    1200	     4.243
  68.800	        16	    1200	     4.000
  68.820	        17	    1200	     4.123
  68.840	        17	    1200	     4.123
  68.860	        22	    1200	     4.690
  68.880	        18	    1200	     4.243
  68.900	        24	    1200	     4.899
  68.920	        18	    1200	     4.243
  68.940	        14	    1200	     3.742
  68.960	        18	    1200	     4.243
  68.980	        20	    1200	     4.472
  69.000	        21	    1200	     4.583
  69.020	        18	    1200	     4.243
  69.040	        23	    1200	     4.796
  69.060	        29	    1200	     5.385
  69.080	        16	    1200	     4.000
  69.100	        19	    1200	     4.359
  69.120	        21	    1200	     4.583
  69.140	        17	    1200	     4.123
  69.160	        19	    1200	     4.359
  69.180	        19	    1200	     4.359
  69.200	        22	    1200	     4.690
  69.220	        20	    1200	     4.472
  69.240	        19	    1200	     4.359
  69.260	        17	    1200	     4.123
  69.280	        16	    1200	     4.000
  69.300	        17	    1200	     4.123
  69.320	        19	    1200	     4.359
  69.340	        20	    1200	     4.472
  69.360	        13	    1200	     3.606
  69.380	        24	    1200	     4.899
  69.400	        12	    1200	     3.464
  69.420	        20	    1200	     4.472
  69.440	        14	    1200	     3.742
  69.460	        19	    1200	     4.359
  69.480	        18	    1200	     4.243
  69.500	        12	    1200	     3.464
  69.520	        13	    1200	     3.606
  69.540	        16	    1200	     4.000
  69.560	        13	    1200	     3.606
  69.580	        10	    1200	     3.162
  69.600	        22	    1200	     4.690
  69.620	        15	    1200	     3.873
  69.640	         9	    1200	     3.000
  69.660	        16	    1200	     4.000
  69.680	        19	    1200	     4.359
  69.700	        15	    1200	     3.873
  69.720	        14	    1200	     3.742
  69.740	        15	    1200	     3.873
  69.760	        10	    1200	     3.162
  69.780	        19	    1200	     4.359
  69.800	        25	    1200	     5.000
  69.820	        10	    1200	     3.162
  69.840	        13	    1200	     3.606
  69.860	        10	    1200	     3.162
  69.880	        20	    1200	     4.472
  69.900	        14	    1200	     3.742
  69.920	        16	    1200	     4.000
  69.940	        12	    1200	     3.464
  69.960	        17	    1200	     4.123
  69.980	        19	    1200	     4.359
  70.000	        20	    1200	     4.472
  70.020	        16	    1200	     4.000
  70.040	        17	    1200	     4.123
  70.060	        17	    1200	     4.123
  70.080	        15	    1200	     3.873
  70.100	        15	    1200	     3.873
  70.120	        23	    1200	     4.796
  70.140	        28	    1200	     5.292
  70.160	        15	    1200	     3.873
  70.180	        16	    1200	     4.000
  70.200	        10	    1200	     3.162
  70.220	         3	    1200	     1.732
  70.240	        23	    1200	     4.796
  70.260	         6	    1200	     2.449
  70.280	        15	    1200	     3.873
  70.300	        15	    1200	     3.873
  70.320	        19	    1200	     4.359
  70.340	        21	    1200	     4.583
  70.360	        17	    1200	     4.123
  70.380	        14	    1200	     3.742
  70.400	        22	    1200	     4.690
  70.420	        13	    1200	     3.606
  70.440	        18	    1200	     4.243
  70.460	        12	    1200	     3.464
  70.480	        11	    1200	     3.317
  70.500	        18	    1200	     4.243
  70.520	        20	    1200	     4.472
  70.540	        17	    1200	     4.123
  70.560	        15	    1200	     3.873
  70.580	        13	    1200	     3.606
  70.600	        15	    1200	     3.873
  70.620	        16	    1200	     4.000
  70.640	        17	    1200	     4.123
  70.660	        18	    1200	     4.243
  70.680	        14	    1200	     3.742
  70.700	         4	    1200	     2.000
  70.720	        16	    1200	     4.000
  70.740	        13	    1200	     3.606
  70.760	        14	    1200	     3.742
  70.780	        12	    1200	     3.464
  70.800	        18	    1200	     4.243
  70.820	        18	    1200	     4.243
  70.840	        11	    1200	     3.317
  70.860	        16	    1200	     4.000
  70.880	        24	    1200	     4.899
  70.900	        14	    1200	     3.742
  70.920	        16	    1200	     4.000
  70.940	        15	    1200	     3.873
  70.960	        16	    1200	     4.000
  70.980	        17	    1200	     4.123
  71.000	        14	    1200	     3.742
  71.020	        14	    1200	     3.742
  71.040	        13	    1200	     3.606
  71.060	        15	    1200	     3.873
  71.080	        21	    1200	     4.583
  71.100	        10	    1200	     3.162
  71.120	        15	    1200	     3.873
  71.140	         9	    1200	     3.000
  71.160	         9	    1200	     3.000
  71.180	        22	    1200	     4.690
  71.200	        14	    1200	     3.742
  71.220	        14	    1200	     3.742
  71.240	        14	    1200	     3.742
  71.260	        13	    1200	     3.606
  71.280	        16	    1200	     4.000
  71.300	        17	    1200	     4.123
  71.320	        20	    1200	     4.472
  71.340	        11	    1200	     3.317
  71.360	         8	    1200	     2.828
  71.380	        12	    1200	     3.464
  71.400	        13	    1200	     3.606
  71.420	         7	    1200	     2.646
  71.440	        22	    1200	     4.690
  71.460	        11	    1200	     3.317
  71.480	        10	    1200	     3.162
  71.500	        16	    1200	     4.000
  71.520	        23	    1200	     4.796
  71.540	        21	    1200	     4.583
  71.560	        12	    1200	     3.464
  71.580	        16	    1200	     4.000
  71.600	        16	    1200	     4.000
  71.620	        16	    1200	     4.000
  71.640	        10	    1200	     3.162
  71.660	        14	    1200	     3.742
  71.680	         9	    1200	     3.000
  71.700	         8	    1200	     2.828
  71.720	        15	    1200	     3.873
  71.740	        12	    1200	     3.464
  71.760	        17	    1200	     4.123
  71.780	        10	    1200	     3.162
  71.800	        15	    1200	     3.873
  71.820	        18	    1200	     4.243
  71.840	        15	    1200	     3.873
  71.860	         9	    1200	     3.000
  71.880	         9	    1200	     3.000
  71.900	        20	    1200	     4.472
  71.920	        12	    1200	     3.464
  71.940	        12	    1200	     3.464
  71.960	        18	    1200	     4.243
  71.980	        18	    1200	     4.243
  72.000	        22	    1200	     4.690
  72.020	        21	    1200	     4.583
  72.040	        22	    1200	     4.690
  72.060	        16	    1200	     4.000
  72.080	        29	    1200	     5.385
  72.100	        17	    1200	     4.123
  72.120	        21	    1200	     4.583
  72.140	        23	    1200	     4.796
  72.160	        28	    1200	     5.292
  72.180	        27	    1200	     5.196
  72.200	        26	    1200	     5.099
  72.220	        33	    1200	     5.745
  72.240	        27	    1200	     5.196
  72.260	        33	    1200	     5.745
  72.280	        33	    1200	     5.745
  72.300	        31	    1200	     5.568
  72.320	        42	    1200	     6.481
  72.340	        34	    1200	     5.831
  72.360	        35	    1200	     5.916
  72.380	        35	    1200	     5.916
  72.400	        53	    1200	     7.280
  72.420	        45	    1200	     6.708
  72.440	        45	    1200	     6.708
  72.460	        35	    1200	     5.916
  72.480	        34	    1200	     5.831
  72.500	        35	    1200	     5.916
  72.520	        51	    1200	     7.141
  72.540	        33	    1200	     5.745
  72.560	        40	    1200	     6.325
  72.580	        29	    1200	     5.385
  72.600	        31	    1200	     5.568
  72.620	        32	    1200	     5.657
  72.640	        28	    1200	     5.292
  72.660	        32	    1200	     5.657
  72.680	        29	    1200	     5.385
  72.700	        31	    1200	     5.568
  72.720	        26	    1200	     5.099
  72.740	        22	    1200	     4.690
  72.760	        27	    1200	     5.196
  72.780	        20	    1200	     4.472
  72.800	        21	    1200	     4.583
  72.820	        18	    1200	     4.243
  72.840	        13	    1200	     3.606
  72.860	        13	    1200	     3.606
  72.880	        18	    1200	     4.243
  72.900	        12	    1200	     3.464
  72.920	        22	    1200	     4.690
  72.940	        12	    1200	     3.464
  72.960	        14	    1200	     3.742
  72.980	        17	    1200	     4.123
  73.000	        14	    1200	     3.742
  73.020	        24	    1200	     4.899
  73.040	        22	    1200	     4.690
  73.060	        20	    1200	     4.472
  73.080	        13	    1200	     3.606
  73.100	        22	    1200	     4.690
  73.120	        17	    1200	     4.123
  73.140	        16	    1200	     4.000
  73.160	         9	    1200	     3.000
  73.180	        14	    1200	     3.742
  73.200	         7	    1200	     2.646
  73.220	        19	    1200	     4.359
  73.240	        13	    1200	     3.606
  73.260	        12	    1200	     3.464
  73.280	        12	    1200	     3.464
  73.300	        16	    1200	     4.000
  73.320	        18	    1200	     4.243
  73.340	        14	    1200	     3.742
  73.360	        10	    1200	     3.162
  73.380	        13	    1200	     3.606
  73.400	        18	    1200	     4.243
  73.420	        14	    1200	     3.742
  73.440	        20	    1200	     4.472
  73.460	        18	    1200	     4.243
  73.480	         8	    1200	     2.828
  73.500	        10	    1200	     3.162
  73.520	        14	    1200	     3.742
  73.540	        17	    1200	     4.123
  73.560	        18	    1200	     4.243
  73.580	        12	    1200	     3.464
  73.600	        18	    1200	     4.243
  73.620	        12	    1200	     3.464
  73.640	        13	    1200	     3.606
  73.660	        10	    1200	     3.162
  73.680	        17	    1200	     4.123
  73.700	        13	    1200	     3.606
  73.720	         9	    1200	     3.000
  73.740	        17	    1200	     4.123
  73.760	        15	    1200	     3.873
  73.780	        12	    1200	     3.464
  73.800	         8	    1200	     2.828
  73.820	        13	    1200	     3.606
  73.840	        14	    1200	     3.742
  73.860	        18	    1200	     4.243
  73.880	        14	    1200	     3.742
  73.900	        12	    1200	     3.464
  73.920	        14	    1200	     3.742
  73.940	        11	    1200	     3.317
  73.960	         5	    1200	     2.236
  73.980	        14	    1200	     3.742
  74.000	         9	    1200	     3.000
  74.020	        13	    1200	     3.606
  74.040	        14	    1200	     3.742
  74.060	        10	    1200	     3.162
  74.080	        12	    1200	     3.464
  74.100	        12	    1200	     3.464
  74.120	        14	    1200	     3.742
  74.140	        13	    1200	     3.606
  74.160	        10	    1200	     3.162
  74.180	        16	    1200	     4.000
  74.200	        14	    1200	     3.742
  74.220	        13	    1200	     3.606
  74.240	        11	    1200	     3.317
  74.260	        16	    1200	     4.000
  74.280	        10	    1200	     3.162
  74.300	        16	    1200	     4.000
  74.320	        16	    1200	     4.000
  74.340	        12	    1200	     3.464
  74.360	        12	    1200	     3.464
  74.380	        13	    1200	     3.606
  74.400	        15	    1200	     3.873
  74.420	        19	    1200	     4.359
  74.440	        18	    1200	     4.243
  74.460	        13	    1200	     3.606
  74.480	        17	    1200	     4.123
  74.500	        14	    1200	     3.742
  74.520	        14	    1200	     3.742
  74.540	        17	    1200	     4.123
  74.560	        15	    1200	     3.873
  74.580	        17	    1200	     4.123
  74.600	        13	    1200	     3.606
  74.620	        11	    1200	     3.317
  74.640	        19	    1200	     4.359
  74.660	        14	    1200	     3.742
  74.680	        10	    1200	     3.162
  74.700	        15	    1200	     3.873
  74.720	        12	    1200	     3.464
  74.740	        16	    1200	     4.000
  74.760	        15	    1200	     3.873
  74.780	        18	    1200	     4.243
  74.800	        12	    1200	     3.464
  74.820	        12	    1200	     3.464
  74.840	        13	    1200	     3.606
  74.860	        14	    1200	     3.742
  74.880	        16	    1200	     4.000
  74.900	        11	    1200	     3.317
  74.920	        15	    1200	     3.873
  74.940	        13	    1200	     3.606
  74.960	        26	    1200	     5.099
  74.980	        11	    1200	     3.317
  75.000	        14	    1200	     3.742
  75.020	        18	    1200	     4.243
  75.040	        18	    1200	     4.243
  75.060	        18	    1200	     4.243
  75.080	        11	    1200	     3.317
  75.100	        10	    1200	     3.162
  75.120	        17	    1200	     4.123
  75.140	        13	    1200	     3.606
  75.160	        16	    1200	     4.000
  75.180	        18	    1200	     4.243
  75.200	         9	    1200	     3.000
  75.220	        17	    1200	     4.123
  75.240	        17	    1200	     4.123
  75.260	        10	    1200	     3.162
  75.280	        14	    1200	     3.742
  75.300	        26	    1200	     5.099
  75.320	        18	    1200	     4.243
  75.340	        12	    1200	     3.464
  75.360	        10	    1200	     3.162
  75.380	        13	    1200	     3.606
  75.400	        19	    1200	     4.359
  75.420	        17	    1200	     4.123
  75.440	        13	    1200	     3.606
  75.460	        24	    1200	     4.899
  75.480	        20	    1200	     4.472
  75.500	        13	    1200	     3.606
  75.520	        14	    1200	     3.742
  75.540	        16	    1200	     4.000
  75.560	        14	    1200	     3.742
  75.580	        19	    1200	     4.359
  75.600	        24	    1200	     4.899
  75.620	        21	    1200	     4.583
  75.640	        15	    1200	     3.873
  75.660	        23	    1200	     4.796
  75.680	        15	    1200	     3.873
  75.700	        20	    1200	     4.472
  75.720	        21	    1200	     4.583
  75.740	        20	    1200	     4.472
  75.760	        19	    1200	     4.359
  75.780	        24	    1200	     4.899
  75.800	        10	    1200	     3.162
  75.820	        20	    1200	     4.472
  75.840	        17	    1200	     4.123
  75.860	        20	    1200	     4.472
  75.880	        12	    1200	     3.464
  75.900	        24	    1200	     4.899
  75.920	        28	    1200	     5.292
  75.940	        19	    1200	     4.359
  75.960	        23	    1200	     4.796
  75.980	        21	    1200	     4.583
  76.000	        15	    1200	     3.873
  76.020	        26	    1200	     5.099
  76.040	        17	    1200	     4.123
  76.060	        26	    1200	     5.099
  76.080	        34	    1200	     5.831
  76.100	        25	    1200	     5.000
  76.120	        16	    1200	     4.000
  76.140	        24	    1200	     4.899
  76.160	        26	    1200	     5.099
  76.180	        25	    1200	     5.000
  76.200	        28	    1200	     5.292
  76.220	        30	    1200	     5.477
  76.240	        28	    1200	     5.292
  76.260	        29	    1200	     5.385
  76.280	        31	    1200	     5.568
  76.300	        31	    1200	     5.568
  76.320	        26	    1200	     5.099
  76.340	        33	    1200	     5.745
  76.360	        36	    1200	     6.000
  76.380	        34	    1200	     5.831
  76.400	        30	    1200	     5.477
  76.420	        35	    1200	     5.916
  76.440	        38	    1200	     6.164
  76.460	        51	    1200	     7.141
  76.480	        39	    1200	     6.245
  76.500	        53	    1200	     7.280
  76.520	        43	    1200	     6.557
  76.540	        67	    1200	     8.185
  76.560	        69	    1200	     8.307
  76.580	        58	    1200	     7.616
  76.600	        73	    1200	     8.544
  76.620	        82	    1200	     9.055
  76.640	        97	    1200	     9.849
  76.660	       104	    1200	    10.198
  76.680	       126	    1200	    11.225
  76.700	       112	    1200	    10.583
  76.720	       163	    1200	    12.767
  76.740	       143	    1200	    11.958
  76.760	       146	    1200	    12.083
  76.780	       170	    1200	    13.038
  76.800	       187	    1200	    13.675
  76.820	       213	    1200	    14.595
  76.840	       239	    1200	    15.460
  76.860	       242	    1200	    15.556
  76.880	       262	    1200	    16.186
  76.900	       282	    1200	    16.793
  76.920	       272	    1200	    16.492
  76.940	       295	    1200	    17.176
  76.960	       287	    1200	    16.941
  76.980	       274	    1200	    16.553
  77.000	       324	    1200	    18.000
  77.020	       256	    1200	    16.000
  77.040	       276	    1200	    16.613
  77.060	       277	    1200	    16.643
  77.080	       284	    1200	    16.852
  77.100	       279	    1200	    16.703
  77.120	       261	    1200	    16.155
  77.140	       235	    1200	    15.330
  77.160	       258	    1200	    16.062
  77.180	       218	    1200	    14.765
  77.200	       217	    1200	    14.731
  77.220	       203	    1200	    14.248
  77.240	       214	    1200	    14.629
  77.260	       178	    1200	    13.342
  77.280	       137	    1200	    11.705
  77.300	       146	    1200	    12.083
  77.320	       144	    1200	    12.000
  77.340	       130	    1200	    11.402
  77.360	       119	    1200	    10.909
  77.380	       109	    1200	    10.440
  77.400	        93	    1200	     9.644
  77.420	        80	    1200	     8.944
  77.440	        83	    1200	     9.110
  77.460	        71	    1200	     8.426
  77.480	        63	    1200	     7.937
  77.500	        66	    1200	     8.124
  77.520	        68	    1200	     8.246
  77.540	        48	    1200	     6.928
  77.560	        53	    1200	     7.280
  77.580	        43	    1200	     6.557
  77.600	        38	    1200	     6.164
  77.620	        31	    1200	     5.568
  77.640	        35	    1200	     5.916
  77.660	        42	    1200	     6.481
  77.680	        33	    1200	     5.745
  77.700	        35	    1200	     5.916
  77.720	        26	    1200	     5.099
  77.740	        29	    1200	     5.385
  77.760	        39	    1200	     6.245
  77.780	        26	    1200	     5.099
  77.800	        21	    1200	     4.583
  77.820	        38	    1200	     6.164
  77.840	        27	    1200	     5.196
  77.860	        29	    1200	     5.385
  77.880	        22	    1200	     4.690
  77.900	        29	    1200	     5.385
  77.920	        27	    1200	     5.196
  77.940	        28	    1200	     5.292
  77.960	        24	    1200	     4.899
  77.980	        34	    1200	     5.831
  78.000	        29	    1200	     5.385
  78.020	        22	    1200	     4.690
  78.040	        23	    1200	     4.796
  78.060	        21	    1200	     4.583
  78.080	        21	    1200	     4.583
  78.100	        15	    1200	     3.873
  78.120	        26	    1200	     5.099
  78.140	        24	    1200	     4.899
  78.160	        16	    1200	     4.000
  78.180	        14	    1200	     3.742
  78.200	        24	    1200	     4.899
  78.220	        19	    1200	     4.359
  78.240	        16	    1200	     4.000
  78.260	        23	    1200	     4.796
  78.280	        14	    1200	     3.742
  78.300	        21	    1200	     4.583
  78.320	        17	    1200	     4.123
  78.340	        18	    1200	     4.243
  78.360	        19	    1200	     4.359
  78.380	        12	    1200	     3.464
  78.400	        17	    1200	     4.123
  78.420	        14	    1200	     3.742
  78.440	        17	    1200	     4.123
  78.460	        16	    1200	     4.000
  78.480	        19	    1200	     4.359
  78.500	        18	    1200	     4.243
  78.520	        16	    1200	     4.000
  78.540	        21	    1200	     4.583
  78.560	        16	    1200	     4.000
  78.580	        17	    1200	     4.123
  78.600	         7	    1200	     2.646
  78.620	        23	    1200	     4.796
  78.640	        13	    1200	     3.606
  78.660	        21	    1200	     4.583
  78.680	        16	    1200	     4.000
  78.700	        15	    1200	     3.873
  78.720	        17	    1200	     4.123
  78.740	        16	    1200	     4.000
  78.760	        15	    1200	     3.873
  78.780	        20	    1200	     4.472
  78.800	        13	    1200	     3.606
  78.820	        20	    1200	     4.472
  78.840	        14	    1200	     3.742
  78.860	        19	    1200	     4.359
  78.880	        18	    1200	     4.243
  78.900	        16	    1200	     4.000
  78.920	        27	    1200	     5.196
  78.940	        14	    1200	     3.742
  78.960	        15	    1200	     3.873
  78.980	        15	    1200	     3.873
  79.000	        21	    1200	     4.583
  79.020	         9	    1200	     3.000
  79.040	        15	    1200	     3.873
  79.060	        11	    1200	     3.317
  79.080	        13	    1200	     3.606
  79.100	        15	    1200	     3.873
  79.120	        15	    1200	     3.873
  79.140	        16	    1200	     4.000
  79.160	        18	    1200	     4.243
  79.180	        15	    1200	     3.873
  79.200	        13	    1200	     3.606
  79.220	        23	    1200	     4.796
  79.240	        15	    1200	     3.873
  79.260	        20	    1200	     4.472
  79.280	        12	    1200	     3.464
  79.300	        22	    1200	     4.690
  79.320	        18	    1200	     4.243
  79.340	        13	    1200	     3.606
  79.360	        15	    1200	     3.873
  79.380	        24	    1200	     4.899
  79.400	        14	    1200	     3.742
  79.420	        15	    1200	     3.873
  79.440	        12	    1200	     3.464
  79.460	        15	    1200	     3.873
  79.480	        14	    1200	     3.742
  79.500	        20	    1200	     4.472
  79.520	        29	    1200	     5.385
  79.540	        17	    1200	     4.123
  79.560	        13	    1200	     3.606
  79.580	        15	    1200	     3.873
  79.600	        14	    1200	     3.742
  79.620	        19	    1200	     4.359
  79.640	        14	    1200	     3.742
  79.660	        16	    1200	     4.000
  79.680	        12	    1200	     3.464
  79.700	        20	    1200	     4.472
  79.720	        15	    1200	     3.873
  79.740	        19	    1200	     4.359
  79.760	        20	    1200	     4.472
  79.780	        13	    1200	     3.606
  79.800	        17	    1200	     4.123
  79.820	        21	    1200	     4.583
  79.840	        20	    1200	     4.472
  79.860	        21	    1200	     4.583
  79.880	        14	    1200	     3.742
  79.900	        24	    1200	     4.899
  79.920	        17	    1200	     4.123
  79.940	        17	    1200	     4.123
  79.960	        13	    1200	     3.606
  79.980	        13	    1200	     3.606
  80.000	        15	    1200	     3.873
  80.020	        24	    1200	     4.899
  80.040	        14	    1200	     3.742
  80.060	        21	    1200	     4.583
  80.080	        12	    1200	     3.464
  80.100	        16	    1200	     4.000
  80.120	        22	    1200	     4.690
  80.140	        15	    1200	     3.873
  80.160	        17	    1200	     4.123
  80.180	        18	    1200	     4.243
  80.200	        18	    1200	     4.243
  80.220	        12	    1200	     3.464
  80.240	        19	    1200	     4.359
  80.260	        15	    1200	     3.873
  80.280	        32	    1200	     5.657
  80.300	        16	    1200	     4.000
  80.320	        18	    1200	     4.243
  80.340	        10	    1200	     3.162
  80.360	        21	    1200	     4.583
  80.380	        12	    1200	     3.464
  80.400	        14	    1200	     3.742
  80.420	        16	    1200	     4.000
  80.440	        13	    1200	     3.606
  80.460	        13	    1200	     3.606
  80.480	        19	    1200	     4.359
  80.500	        14	    1200	     3.742
  80.520	        20	    1200	     4.472
  80.540	        16	    1200	     4.000
  80.560	        25	    1200	     5.000
  80.580	        17	    1200	     4.123
  80.600	        23	    1200	     4.796
  80.620	        18	    1200	     4.243
  80.640	        15	    1200	     3.873
  80.660	        12	    1200	     3.464
  80.680	        18	    1200	     4.243
  80.700	        21	    1200	     4.583
  80.720	        15	    1200	     3.873
  80.740	        10	    1200	     3.162
  80.760	        19	    1200	     4.359
  80.780	        22	    1200	     4.690
  80.800	        16	    1200	     4.000
  80.820	        15	    1200	     3.873
  80.840	        12	    1200	     3.464
  80.860	        16	    1200	     4.000
  80.880	        20	    1200	     4.472
  80.900	        22	    1200	     4.690
  80.920	        26	    1200	     5.099
  80.940	        17	    1200	     4.123
  80.960	        29	    1200	     5.385
  80.980	        25	    1200	     5.000
  81.000	        25	    1200	     5.000
  81.020	        19	    1200	     4.359
  81.040	        26	    1200	     5.099
  81.060	        24	    1200	     4.899
  81.080	        22	    1200	     4.690
  81.100	        18	    1200	     4.243
  81.120	        22	    1200	     4.690
  81.140	        39	    1200	     6.245
  81.160	        35	    1200	     5.916
  81.180	        42	    1200	     6.481
  81.200	        30	    1200	     5.477
  81.220	        34	    1200	     5.831
  81.240	        46	    1200	     6.782
  81.260	        45	    1200	     6.708
  81.280	        48	    1200	     6.928
  81.300	        50	    1200	     7.071
  81.320	        72	    1200	     8.485
  81.340	        59	    1200	     7.681
  81.360	        72	    1200	     8.485
  81.380	        63	    1200	     7.937
  81.400	        85	    1200	     9.220
  81.420	        59	    1200	     7.681
  81.440	        65	    1200	     8.062
  81.460	        73	    1200	     8.544
  81.480	        94	    1200	     9.695
  81.500	       105	    1200	    10.247
  81.520	        85	    1200	     9.220
  81.540	        82	    1200	     9.055
  81.560	        88	    1200	     9.381
  81.580	        72	    1200	     8.485
  81.600	        97	    1200	     9.849
  81.620	        73	    1200	     8.544
  81.640	        86	    1200	     9.274
  81.660	        86	    1200	     9.274
  81.680	        71	    1200	     8.426
  81.700	        74	    1200	     8.602
  81.720	        82	    1200	     9.055
  81.740	        80	    1200	     8.944
  81.760	        69	    1200	     8.307
  81.780	        61	    1200	     7.810
  81.800	        64	    1200	     8.000
  81.820	        48	    1200	     6.928
  81.840	        52	    1200	     7.211
  81.860	        70	    1200	     8.367
  81.880	        62	    1200	     7.874
  81.900	        52	    1200	     7.211
  81.920	        52	    1200	     7.211
  81.940	        37	    1200	     6.083
  81.960	        36	    1200	     6.000
  81.980	        39	    1200	     6.245
  82.000	        36	    1200	     6.000
  82.020	        36	    1200	     6.000
  82.040	        32	    1200	     5.657
  82.060	        26	    1200	     5.099
  82.080	        19	    1200	     4.359
  82.100	        24	    1200	     4.899
  82.120	        24	    1200	     4.899
  82.140	        23	    1200	     4.796
  82.160	        28	    1200	     5.292
  82.180	        19	    1200	     4.359
  82.200	        20	    1200	     4.472
  82.220	        20	    1200	     4.472
  82.240	        17	    1200	     4.123
  82.260	        21	    1200	     4.583
  82.280	        26	    1200	     5.099
  82.300	        26	    1200	     5.099
  82.320	        27	    1200	     5.196
  82.340	        24	    1200	     4.899
  82.360	        20	    1200	     4.472
  82.380	        25	    1200	     5.000
  82.400	        25	    1200	     5.000
  82.420	        25	    1200	     5.000
  82.440	        30	    1200	     5.477
  82.460	        20	    1200	     4.472
  82.480	        20	    1200	     4.472
  82.500	        23	    1200	     4.796
  82.520	        18	    1200	     4.243
  82.540	        24	    1200	     4.899
  82.560	        26	    1200	     5.099
  82.580	        18	    1200	     4.243
  82.600	        19	    1200	     4.359
  82.620	        13	    1200	     3.606
  82.640	        12	    1200	     3.464
  82.660	        16	    1200	     4.000
  82.680	        19	    1200	     4.359
  82.700	        11	    1200	     3.317
  82.720	        24	    1200	     4.899
  82.740	        25	    1200	     5.000
  82.760	        19	    1200	     4.359
  82.780	        16	    1200	     4.000
  82.800	        17	    1200	     4.123
  82.820	        17	    1200	     4.123
  82.840	        18	    1200	     4.243
  82.860	        17	    1200	     4.123
  82.880	        19	    1200	     4.359
  82.900	        26	    1200	     5.099
  82.920	        16	    1200	     4.000
  82.940	        20	    1200	     4.472
  82.960	        16	    1200	     4.000
  82.980	        19	    1200	     4.359
  83.000	        18	    1200	     4.243
  83.020	        12	    1200	     3.464
  83.040	        16	    1200	     4.000
  83.060	        13	    1200	     3.606
  83.080	         7	    1200	     2.646
  83.100	        16	    1200	     4.000
  83.120	        16	    1200	     4.000
  83.140	        18	    1200	     4.243
  83.160	        14	    1200	     3.742
  83.180	        24	    1200	     4.899
  83.200	        19	    1200	     4.359
  83.220	        14	    1200	     3.742
  83.240	        21	    1200	     4.583
  83.260	         9	    1200	     3.000
  83.280	        17	    1200	     4.123
  83.300	        23	    1200	     4.796
  83.320	        11	    1200	     3.317
  83.340	        12	    1200	     3.464
  83.360	        19	    1200	     4.359
  83.380	         7	    1200	     2.646
  83.400	        15	    1200	     3.873
  83.420	        15	    1200	     3.873
  83.440	        11	    1200	     3.317
  83.460	        19	    1200	     4.359
  83.480	        20	    1200	     4.472
  83.500	        16	    1200	     4.000
  83.520	        22	    1200	     4.690
  83.540	        15	    1200	     3.873
  83.560	        16	    1200	     4.000
  83.580	        14	    1200	     3.742
  83.600	        18	    1200	     4.243
  83.620	        16	    1200	     4.000
  83.640	        15	    1200	     3.873
  83.660	        15	    1200	     3.873
  83.680	        16	    1200	     4.000
  83.700	        15	    1200	     3.873
  83.720	        18	    1200	     4.243
  83.740	        21	    1200	     4.583
  83.760	        18	    1200	     4.243
  83.780	        18	    1200	     4.243
  83.800	         5	    1200	     2.236
  83.820	        22	    1200	     4.690
  83.840	        20	    1200	     4.472
  83.860	        11	    1200	     3.317
  83.880	        14	    1200	     3.742
  83.900	        14	    1200	     3.742
  83.920	        18	    1200	     4.243
  83.940	        15	    1200	     3.873
  83.960	        16	    1200	     4.000
  83.980	        10	    1200	     3.162
  84.000	        13	    1200	     3.606
  84.020	        21	    1200	     4.583
  84.040	        14	    1200	     3.742
  84.060	        15	    1200	     3.873
  84.080	        20	    1200	     4.472
  84.100	        14	    1200	     3.742
  84.120	        18	    1200	     4.243
  84.140	        14	    1200	     3.742
  84.160	        16	    1200	     4.000
  84.180	        20	    1200	     4.472
  84.200	        22	    1200	     4.690
  84.220	        19	    1200	     4.359
  84.240	        13	    1200	     3.606
  84.260	        10	    1200	     3.162
  84.280	        17	    1200	     4.123
  84.300	        24	    1200	     4.899
  84.320	        10	    1200	     3.162
  84.340	        13	    1200	     3.606
  84.360	        15	    1200	     3.873
  84.380	        13	    1200	     3.606
  84.400	        11	    1200	     3.317
  84.420	        11	    1200	     3.317
  84.440	        16	    1200	     4.000
  84.460	        14	    1200	     3.742
  84.480	        16	    1200	     4.000
  84.500	        17	    1200	     4.123
  84.520	        19	    1200	     4.359
  84.540	        17	    1200	     4.123
  84.560	        17	    1200	     4.123
  84.580	        16	    1200	     4.000
  84.600	        23	    1200	     4.796
  84.620	        16	    1200	     4.000
  84.640	         9	    1200	     3.000
  84.660	        11	    1200	     3.317
  84.680	        13	    1200	     3.606
  84.700	        23	    1200	     4.796
  84.720	        14	    1200	     3.742
  84.740	        15	    1200	     3.873
  84.760	        17	    1200	     4.123
  84.780	        15	    1200	     3.873
  84.800	        18	    1200	     4.243
  84.820	        12	    1200	     3.464
  84.840	        17	    1200	     4.123
  84.860	        20	    1200	     4.472
  84.880	        17	    1200	     4.123
  84.900	        19	    1200	     4.359
  84.920	        15	    1200	     3.873
  84.940	        12	    1200	     3.464
  84.960	        21	    1200	     4.583
  84.980	        10	    1200	     3.162
  85.000	        20	    1200	     4.472
  85.020	        20	    1200	     4.472
  85.040	        16	    1200	     4.000
  85.060	        18	    1200	     4.243
  85.080	        27	    1200	     5.196
  85.100	        14	    1200	     3.742
  85.120	        17	    1200	     4.123
  85.140	        19	    1200	     4.359
  85.160	        17	    1200	     4.123
  85.180	        13	    1200	     3.606
  85.200	        15	    1200	     3.873
  85.220	        11	    1200	     3.317
  85.240	        16	    1200	     4.000
  85.260	        23	    1200	     4.796
  85.280	        16	    1200	     4.000
  85.300	        21	    1200	     4.583
  85.320	        14	    1200	     3.742
  85.340	        25	    1200	     5.000
  85.360	        34	    1200	     5.831
  85.380	        14	    1200	     3.742
  85.400	        19	    1200	     4.359
  85.420	        14	    1200	     3.742
  85.440	        32	    1200	     5.657
  85.460	        18	    1200	     4.243
  85.480	        23	    1200	     4.796
  85.500	        39	    1200	     6.245
  85.520	        27	    1200	     5.196
  85.540	        37	    1200	     6.083
  85.560	        34	    1200	     5.831
  85.580	        26	    1200	     5.099
  85.600	        43	    1200	     6.557
  85.620	        42	    1200	     6.481
  85.640	        32	    1200	     5.657
  85.660	        30	    1200	     5.477
  85.680	        51	    1200	     7.141
  85.700	        51	    1200	     7.141
  85.720	        66	    1200	     8.124
  85.740	        61	    1200	     7.810
  85.760	        75	    1200	     8.660
  85.780	        87	    1200	     9.327
  85.800	       103	    1200	    10.149
  85.820	       101	    1200	    10.050
  85.840	        93	    1200	     9.644
  85.860	        90	    1200	     9.487
  85.880	       104	    1200	    10.198
  85.900	       104	    1200	    10.198
  85.920	       113	    1200	    10.630
  85.940	       119	    1200	    10.909
  85.960	        99	    1200	     9.950
  85.980	       124	    1200	    11.136
  86.000	       127	    1200	    11.269
  86.020	       114	    1200	    10.677
  86.040	       125	    1200	    11.180
  86.060	       128	    1200	    11.314
  86.080	       115	    1200	    10.724
  86.100	       117	    1200	    10.817
  86.120	       110	    1200	    10.488
  86.140	       105	    1200	    10.247
  86.160	       132	    1200	    11.489
  86.180	       113	    1200	    10.630
  86.200	        98	    1200	     9.899
  86.220	        96	    1200	     9.798
  86.240	        99	    1200	     9.950
  86.260	        83	    1200	     9.110
  86.280	        82	    1200	     9.055
  86.300	        83	    1200	     9.110
  86.320	        82	    1200	     9.055
  86.340	        76	    1200	     8.718
  86.360	        78	    1200	     8.832
  86.380	        56	    1200	     7.483
  86.400	        74	    1200	     8.602
  86.420	        47	    1200	     6.856
  86.440	        55	    1200	     7.416
  86.460	        42	    1200	     6.481
  86.480	        42	    1200	     6.481
  86.500	        40	    1200	     6.325
  86.520	        39	    1200	     6.245
  86.540	        49	    1200	     7.000
  86.560	        37	    1200	     6.083
  86.580	        33	    1200	     5.745
  86.600	        33	    1200	     5.745
  86.620	        23	    1200	     4.796
  86.640	        28	    1200	     5.292
  86.660	        31	    1200	     5.568
  86.680	        22	    1200	     4.690
  86.700	        28	    1200	     5.292
  86.720	        25	    1200	     5.000
  86.740	        23	    1200	     4.796
  86.760	        19	    1200	     4.359
  86.780	        26	    1200	     5.099
  86.800	        19	    1200	     4.359
  86.820	        19	    1200	     4.359
  86.840	        20	    1200	     4.472
  86.860	        23	    1200	     4.796
  86.880	        19	    1200	     4.359
  86.900	        24	    1200	     4.899
  86.920	        22	    1200	     4.690
  86.940	        16	    1200	     4.000
  86.960	         9	    1200	     3.000
  86.980	        27	    1200	     5.196
  87.000	        19	    1200	     4.359
  87.020	        20	    1200	     4.472
  87.040	        18	    1200	     4.243
  87.060	        18	    1200	     4.243
  87.080	        19	    1200	     4.359
  87.100	        18	    1200	     4.243
  87.120	        16	    1200	     4.000
  87.140	        14	    1200	     3.742
  87.160	        14	    1200	     3.742
  87.180	        19	    1200	     4.359
  87.200	        21	    1200	     4.583
  87.220	        17	    1200	     4.123
  87.240	        20	    1200	     4.472
  87.260	        17	    1200	     4.123
  87.280	        12	    1200	     3.464
  87.300	        15	    1200	     3.873
  87.320	        13	    1200	     3.606
  87.340	        24	    1200	     4.899
  87.360	        16	    1200	     4.000
  87.380	        13	    1200	     3.606
  87.400	        20	    1200	     4.472
  87.420	        13	    1200	     3.606
  87.440	        13	    1200	     3.606
  87.460	        10	    1200	     3.162
  87.480	         8	    1200	     2.828
  87.500	        14	    1200	     3.742
  87.520	        11	    1200	     3.317
  87.540	        13	    1200	     3.606
  87.560	        17	    1200	     4.123
  87.580	        18	    1200	     4.243
  87.600	        15	    1200	     3.873
  87.620	        18	    1200	     4.243
  87.640	        13	    1200	     3.606
  87.660	        12	    1200	     3.464
  87.680	        18	    1200	     4.243
  87.700	        10	    1200	     3.162
  87.720	         7	    1200	     2.646
  87.740	        14	    1200	     3.742
  87.760	        17	    1200	     4.123
  87.780	        12	    1200	     3.464
  87.800	        23	    1200	     4.796
  87.820	        13	    1200	     3.606
  87.840	        15	    1200	     3.873
  87.860	        12	    1200	     3.464
  87.880	        13	    1200	     3.606
  87.900	        12	    1200	     3.464
  87.920	        20	    1200	     4.472
  87.940	        15	    1200	     3.873
  87.960	        10	    1200	     3.162
  87.980	        17	    1200	     4.123
  88.000	        18	    1200	     4.243
  88.020	        16	    1200	     4.000
  88.040	        10	    1200	     3.162
  88.060	        18	    1200	     4.243
  88.080	         9	    1200	     3.000
  88.100	        14	    1200	     3.742
  88.120	        19	    1200	     4.359
  88.140	        23	    1200	     4.796
  88.160	        15	    1200	     3.873
  88.180	        24	    1200	     4.899
  88.200	        13	    1200	     3.606
  88.220	        16	    1200	     4.000
  88.240	        11	    1200	     3.317
  88.260	        19	    1200	     4.359
  88.280	        19	    1200	     4.359
  88.300	        16	    1200	     4.000
  88.320	         6	    1200	     2.449
  88.340	        16	    1200	     4.000
  88.360	        13	    1200	     3.606
  88.380	        15	    1200	     3.873
  88.400	        13	    1200	     3.606
  88.420	        12	    1200	     3.464
  88.440	        13	    1200	     3.606
  88.460	        20	    1200	     4.472
  88.480	        12	    1200	     3.464
  88.500	        19	    1200	     4.359
  88.520	        20	    1200	     4.472
  88.540	        14	    1200	     3.742
  88.560	         8	    1200	     2.828
  88.580	        17	    1200	     4.123
  88.600	        14	    1200	     3.742
  88.620	        15	    1200	     3.873
  88.640	        19	    1200	     4.359
  88.660	        15	    1200	     3.873
  88.680	        17	    1200	     4.123
  88.700	        10	    1200	     3.162
  88.720	        13	    1200	     3.606
  88.740	        19	    1200	     4.359
  88.760	        19	    1200	     4.359
  88.780	        14	    1200	     3.742
  88.800	        11	    1200	     3.317
  88.820	        17	    1200	     4.123
  88.840	        16	    1200	     4.000
  88.860	        15	    1200	     3.873
  88.880	        20	    1200	     4.472
  88.900	         9	    1200	     3.000
  88.920	        10	    1200	     3.162
  88.940	        16	    1200	     4.000
  88.960	        18	    1200	     4.243
  88.980	        16	    1200	     4.000
  89.000	        17	    1200	     4.123
  89.020	        15	    1200	     3.873
  89.040	        13	    1200	     3.606
  89.060	        11	    1200	     3.317
  89.080	        15	    1200	     3.873
  89.100	        17	    1200	     4.123
  89.120	        12	    1200	     3.464
  89.140	        22	    1200	     4.690
  89.160	        25	    1200	     5.000
  89.180	        17	    1200	     4.123
  89.200	        15	    1200	     3.873
  89.220	        19	    1200	     4.359
  89.240	        15	    1200	     3.873
  89.260	        15	    1200	     3.873
  89.280	         8	    1200	     2.828
  89.300	        10	    1200	     3.162
  89.320	        19	    1200	     4.359
  89.340	        18	    1200	     4.243
  89.360	        13	    1200	     3.606
  89.380	         9	    1200	     3.000
  89.400	        21	    1200	     4.583
  89.420	        17	    1200	     4.123
  89.440	        16	    1200	     4.000
  89.460	        12	    1200	     3.464
  89.480	        15	    1200	     3.873
  89.500	        16	    1200	     4.000
  89.520	        13	    1200	     3.606
  89.540	        14	    1200	     3.742
  89.560	        11	    1200	     3.317
  89.580	         9	    1200	     3.000
  89.600	        11	    1200	     3.317
  89.620	        15	    1200	     3.873
  89.640	        19	    1200	     4.359
  89.660	        16	    1200	     4.000
  89.680	        16	    1200	     4.000
  89.700	        21	    1200	     4.583
  89.720	        18	    1200	     4.243
  89.740	        14	    1200	     3.742
  89.760	        16	    1200	     4.000
  89.780	        19	    1200	     4.359
  89.800	        15	    1200	     3.873
  89.820	        16	    1200	     4.000
  89.840	        19	    1200	     4.359
  89.860	        12	    1200	     3.464
  89.880	        15	    1200	     3.873
  89.900	        20	    1200	     4.472
  89.920	        19	    1200	     4.359
  89.940	        17	    1200	     4.123
  89.960	        15	    1200	     3.873
  89.980	        15	    1200	     3.873
  90.000	        11	    1200	     3.317
