         ID: 

    Comment: 

Scan Type: Normal
Start Angle: 15 deg.
Stop Angle: 90 deg.
Num Points: 3751
Step Size: 0.02 deg.
Datafile Res: 1600 
Scan Rate: 1.000000
Scan Mode: Continuous
Wavelength: 1.540562

Diffractometer Optics:
		Detector:
			 Type: Fixed Slits
			 X2 Configuration: No
		Tube: 
			 Type: Fixed Slits
			 X2 Configuration: No


Axis[0]
	 Selected   : no 
	 Iterative  : no 
	 Start Angle: 0.000000 
	 Stop Angle : 0.000000 
	 Step Size  : 0.000000 
	 Oscillating: no 

Axis[1]
	 Selected   : no 
	 Iterative  : no 
	 Start Angle: 0.000000 
	 Stop Angle : 0.000000 
	 Step Size  : 0.000000 
	 Oscillating: no 

Axis[2]
	 Selected   : no 
	 Iterative  : no 
	 Start Angle: 0.000000 
	 Stop Angle : 0.000000 
	 Step Size  : 0.000000 
	 Oscillating: no 

Axis[3]
	 Selected   : no 
	 Iterative  : no 
	 Start Angle: 0.000000 
	 Stop Angle : 0.000000 
	 Step Size  : 0.000000 
	 Oscillating: no 

Axis[4]
	 Selected   : no 
	 Iterative  : no 
	 Start Angle: 0.000000 
	 Stop Angle : 0.000000 
	 Step Size  : 0.000000 
	 Oscillating: no 

Axis[5]
	 Selected   : no 
	 Iterative  : no 
	 Start Angle: 0.000000 
	 Stop Angle : 0.000000 
	 Step Size  : 0.000000 
	 Oscillating: no 

Axis[6]
	 Selected   : no 
	 Iterative  : no 
	 Start Angle: 0.000000 
	 Stop Angle : 0.000000 
	 Step Size  : 0.000000 
	 Oscillating: no 

Axis[7]
	 Selected   : no 
	 Iterative  : no 
	 Start Angle: 0.000000 
	 Stop Angle : 0.000000 
	 Step Size  : 0.000000 
	 Oscillating: no 

Axis[8]
	 Selected   : no 
	 Iterative  : no 
	 Start Angle: 0.000000 
	 Stop Angle : 0.000000 
	 Step Size  : 0.000000 
	 Oscillating: no 

Axis[9]
	 Selected   : no 
	 Iterative  : no 
	 Start Angle: 0.000000 
	 Stop Angle : 0.000000 
	 Step Size  : 0.000000 
	 Oscillating: no 




	   Deg.    Counts 	   Time 	    ESD   

Range 0
  15.000	       108	    1200	    10.392
  15.020	       104	    1200	    10.198
  15.040	       136	    1200	    11.662
  15.060	       111	    1200	    10.536
  15.080	       124	    1200	    11.136
  15.100	       122	    1200	    11.045
  15.120	       129	    1200	    11.358
  15.140	       119	    1200	    10.909
  15.160	       117	    1200	    10.817
  15.180	       127	    1200	    11.269
  15.200	       114	    1200	    10.677
  15.220	       118	    1200	    10.863
  15.240	       116	    1200	    10.770
  15.260	       136	    1200	    11.662
  15.280	       112	    1200	    10.583
  15.300	       120	    1200	    10.954
  15.320	       119	    1200	    10.909
  15.340	       135	    1200	    11.619
  15.360	       121	    1200	    11.000
  15.380	       112	    1200	    10.583
  15.400	       131	    1200	    11.446
  15.420	       126	    1200	    11.225
  15.440	       108	    1200	    10.392
  15.460	       111	    1200	    10.536
  15.480	       144	    1200	    12.000
  15.500	       118	    1200	    10.863
  15.520	       141	    1200	    11.874
  15.540	       113	    1200	    10.630
  15.560	       109	    1200	    10.440
  15.580	       119	    1200	    10.909
  15.600	       130	    1200	    11.402
  15.620	       106	    1200	    10.296
  15.640	       128	    1200	    11.314
  15.660	       132	    1200	    11.489
  15.680	       134	    1200	    11.576
  15.700	       119	    1200	    10.909
  15.720	       126	    1200	    11.225
  15.740	       109	    1200	    10.440
  15.760	        96	    1200	     9.798
  15.780	       115	    1200	    10.724
  15.800	       100	    1200	    10.000
  15.820	       123	    1200	    11.091
  15.840	       125	    1200	    11.180
  15.860	       110	    1200	    10.488
  15.880	        92	    1200	     9.592
  15.900	       118	    1200	    10.863
  15.920	       106	    1200	    10.296
  15.940	       135	    1200	    11.619
  15.960	       105	    1200	    10.247
  15.980	       137	    1200	    11.705
  16.000	       123	    1200	    11.091
  16.020	       131	    1200	    11.446
  16.040	       106	    1200	    10.296
  16.060	       123	    1200	    11.091
  16.080	       148	    1200	    12.166
  16.100	       129	    1200	    11.358
  16.120	       116	    1200	    10.770
  16.140	       128	    1200	    11.314
  16.160	       128	    1200	    11.314
  16.180	       136	    1200	    11.662
  16.200	       121	    1200	    11.000
  16.220	       123	    1200	    11.091
  16.240	       110	    1200	    10.488
  16.260	       106	    1200	    10.296
  16.280	       136	    1200	    11.662
  16.300	       102	    1200	    10.100
  16.320	       124	    1200	    11.136
  16.340	       129	    1200	    11.358
  16.360	       131	    1200	    11.446
  16.380	       126	    1200	    11.225
  16.400	       127	    1200	    11.269
  16.420	       122	    1200	    11.045
  16.440	       135	    1200	    11.619
  16.460	       127	    1200	    11.269
  16.480	       133	    1200	    11.533
  16.500	       126	    1200	    11.225
  16.520	       119	    1200	    10.909
  16.540	       117	    1200	    10.817
  16.560	       116	    1200	    10.770
  16.580	       107	    1200	    10.344
  16.600	       104	    1200	    10.198
  16.620	       116	    1200	    10.770
  16.640	       101	    1200	    10.050
  16.660	       101	    1200	    10.050
  16.680	       129	    1200	    11.358
  16.700	       107	    1200	    10.344
  16.720	       125	    1200	    11.180
  16.740	       112	    1200	    10.583
  16.760	       104	    1200	    10.198
  16.780	       131	    1200	    11.446
  16.800	       132	    1200	    11.489
  16.820	       120	    1200	    10.954
  16.840	       120	    1200	    10.954
  16.860	       134	    1200	    11.576
  16.880	       117	    1200	    10.817
  16.900	       119	    1200	    10.909
  16.920	       117	    1200	    10.817
  16.940	       136	    1200	    11.662
  16.960	       139	    1200	    11.790
  16.980	       120	    1200	    10.954
  17.000	       114	    1200	    10.677
  17.020	       114	    1200	    10.677
  17.040	       115	    1200	    10.724
  17.060	       150	    1200	    12.247
  17.080	       145	    1200	    12.042
  17.100	       125	    1200	    11.180
  17.120	       134	    1200	    11.576
  17.140	       143	    1200	    11.958
  17.160	       115	    1200	    10.724
  17.180	       134	    1200	    11.576
  17.200	       119	    1200	    10.909
  17.220	       121	    1200	    11.000
  17.240	       114	    1200	    10.677
  17.260	       143	    1200	    11.958
  17.280	       122	    1200	    11.045
  17.300	       118	    1200	    10.863
  17.320	        94	    1200	     9.695
  17.340	       115	    1200	    10.724
  17.360	        97	    1200	     9.849
  17.380	       117	    1200	    10.817
  17.400	       129	    1200	    11.358
  17.420	       137	    1200	    11.705
  17.440	       114	    1200	    10.677
  17.460	       126	    1200	    11.225
  17.480	       130	    1200	    11.402
  17.500	       129	    1200	    11.358
  17.520	       117	    1200	    10.817
  17.540	       114	    1200	    10.677
  17.560	       113	    1200	    10.630
  17.580	       107	    1200	    10.344
  17.600	       125	    1200	    11.180
  17.620	       113	    1200	    10.630
  17.640	       120	    1200	    10.954
  17.660	       131	    1200	    11.446
  17.680	       124	    1200	    11.136
  17.700	       123	    1200	    11.091
  17.720	       126	    1200	    11.225
  17.740	       119	    1200	    10.909
  17.760	       118	    1200	    10.863
  17.780	       130	    1200	    11.402
  17.800	       100	    1200	    10.000
  17.820	       143	    1200	    11.958
  17.840	       129	    1200	    11.358
  17.860	       145	    1200	    12.042
  17.880	       134	    1200	    11.576
  17.900	       142	    1200	    11.916
  17.920	       107	    1200	    10.344
  17.940	       141	    1200	    11.874
  17.960	       116	    1200	    10.770
  17.980	       125	    1200	    11.180
  18.000	       120	    1200	    10.954
  18.020	       112	    1200	    10.583
  18.040	       104	    1200	    10.198
  18.060	       132	    1200	    11.489
  18.080	       123	    1200	    11.091
  18.100	       136	    1200	    11.662
  18.120	       121	    1200	    11.000
  18.140	       138	    1200	    11.747
  18.160	       116	    1200	    10.770
  18.180	       117	    1200	    10.817
  18.200	       122	    1200	    11.045
  18.220	       115	    1200	    10.724
  18.240	       104	    1200	    10.198
  18.260	       108	    1200	    10.392
  18.280	       129	    1200	    11.358
  18.300	       126	    1200	    11.225
  18.320	       129	    1200	    11.358
  18.340	       116	    1200	    10.770
  18.360	       128	    1200	    11.314
  18.380	       125	    1200	    11.180
  18.400	       111	    1200	    10.536
  18.420	       129	    1200	    11.358
  18.440	       148	    1200	    12.166
  18.460	       140	    1200	    11.832
  18.480	       110	    1200	    10.488
  18.500	       128	    1200	    11.314
  18.520	       113	    1200	    10.630
  18.540	       113	    1200	    10.630
  18.560	       119	    1200	    10.909
  18.580	       114	    1200	    10.677
  18.600	       121	    1200	    11.000
  18.620	       116	    1200	    10.770
  18.640	       119	    1200	    10.909
  18.660	       129	    1200	    11.358
  18.680	       122	    1200	    11.045
  18.700	       117	    1200	    10.817
  18.720	       110	    1200	    10.488
  18.740	       133	    1200	    11.533
  18.760	       125	    1200	    11.180
  18.780	       102	    1200	    10.100
  18.800	       120	    1200	    10.954
  18.820	       132	    1200	    11.489
  18.840	       123	    1200	    11.091
  18.860	       126	    1200	    11.225
  18.880	       106	    1200	    10.296
  18.900	        99	    1200	     9.950
  18.920	       130	    1200	    11.402
  18.940	       124	    1200	    11.136
  18.960	       112	    1200	    10.583
  18.980	       111	    1200	    10.536
  19.000	       110	    1200	    10.488
  19.020	       120	    1200	    10.954
  19.040	       126	    1200	    11.225
  19.060	       107	    1200	    10.344
  19.080	       116	    1200	    10.770
  19.100	       116	    1200	    10.770
  19.120	       106	    1200	    10.296
  19.140	       130	    1200	    11.402
  19.160	       135	    1200	    11.619
  19.180	       126	    1200	    11.225
  19.200	       125	    1200	    11.180
  19.220	       128	    1200	    11.314
  19.240	       129	    1200	    11.358
  19.260	       133	    1200	    11.533
  19.280	       121	    1200	    11.000
  19.300	       141	    1200	    11.874
  19.320	       112	    1200	    10.583
  19.340	       122	    1200	    11.045
  19.360	       118	    1200	    10.863
  19.380	       114	    1200	    10.677
  19.400	       127	    1200	    11.269
  19.420	       126	    1200	    11.225
  19.440	       138	    1200	    11.747
  19.460	       133	    1200	    11.533
  19.480	       129	    1200	    11.358
  19.500	       145	    1200	    12.042
  19.520	       107	    1200	    10.344
  19.540	       133	    1200	    11.533
  19.560	       129	    1200	    11.358
  19.580	       109	    1200	    10.440
  19.600	       133	    1200	    11.533
  19.620	       106	    1200	    10.296
  19.640	       129	    1200	    11.358
  19.660	       124	    1200	    11.136
  19.680	       136	    1200	    11.662
  19.700	       129	    1200	    11.358
  19.720	       131	    1200	    11.446
  19.740	       122	    1200	    11.045
  19.760	       138	    1200	    11.747
  19.780	       130	    1200	    11.402
  19.800	       125	    1200	    11.180
  19.820	       151	    1200	    12.288
  19.840	       128	    1200	    11.314
  19.860	       100	    1200	    10.000
  19.880	       139	    1200	    11.790
  19.900	       111	    1200	    10.536
  19.920	       128	    1200	    11.314
  19.940	       146	    1200	    12.083
  19.960	       133	    1200	    11.533
  19.980	       116	    1200	    10.770
  20.000	       130	    1200	    11.402
  20.020	       117	    1200	    10.817
  20.040	       141	    1200	    11.874
  20.060	       123	    1200	    11.091
  20.080	       130	    1200	    11.402
  20.100	       128	    1200	    11.314
  20.120	       120	    1200	    10.954
  20.140	       131	    1200	    11.446
  20.160	       147	    1200	    12.124
  20.180	       128	    1200	    11.314
  20.200	       125	    1200	    11.180
  20.220	       119	    1200	    10.909
  20.240	       114	    1200	    10.677
  20.260	       139	    1200	    11.790
  20.280	       134	    1200	    11.576
  20.300	       151	    1200	    12.288
  20.320	       120	    1200	    10.954
  20.340	       133	    1200	    11.533
  20.360	       110	    1200	    10.488
  20.380	       138	    1200	    11.747
  20.400	       123	    1200	    11.091
  20.420	       116	    1200	    10.770
  20.440	       126	    1200	    11.225
  20.460	       108	    1200	    10.392
  20.480	       103	    1200	    10.149
  20.500	       127	    1200	    11.269
  20.520	       139	    1200	    11.790
  20.540	       123	    1200	    11.091
  20.560	       153	    1200	    12.369
  20.580	       122	    1200	    11.045
  20.600	       120	    1200	    10.954
  20.620	       143	    1200	    11.958
  20.640	       131	    1200	    11.446
  20.660	       122	    1200	    11.045
  20.680	       128	    1200	    11.314
  20.700	       126	    1200	    11.225
  20.720	       113	    1200	    10.630
  20.740	       123	    1200	    11.091
  20.760	       136	    1200	    11.662
  20.780	       125	    1200	    11.180
  20.800	       128	    1200	    11.314
  20.820	       116	    1200	    10.770
  20.840	       128	    1200	    11.314
  20.860	       140	    1200	    11.832
  20.880	       112	    1200	    10.583
  20.900	       136	    1200	    11.662
  20.920	       140	    1200	    11.832
  20.940	       133	    1200	    11.533
  20.960	       136	    1200	    11.662
  20.980	       121	    1200	    11.000
  21.000	       129	    1200	    11.358
  21.020	       136	    1200	    11.662
  21.040	       136	    1200	    11.662
  21.060	       129	    1200	    11.358
  21.080	       134	    1200	    11.576
  21.100	       135	    1200	    11.619
  21.120	       139	    1200	    11.790
  21.140	       132	    1200	    11.489
  21.160	       137	    1200	    11.705
  21.180	       145	    1200	    12.042
  21.200	       123	    1200	    11.091
  21.220	       132	    1200	    11.489
  21.240	       118	    1200	    10.863
  21.260	       124	    1200	    11.136
  21.280	       144	    1200	    12.000
  21.300	       121	    1200	    11.000
  21.320	       121	    1200	    11.000
  21.340	       135	    1200	    11.619
  21.360	       137	    1200	    11.705
  21.380	       142	    1200	    11.916
  21.400	       141	    1200	    11.874
  21.420	       124	    1200	    11.136
  21.440	       132	    1200	    11.489
  21.460	       131	    1200	    11.446
  21.480	       125	    1200	    11.180
  21.500	       122	    1200	    11.045
  21.520	       135	    1200	    11.619
  21.540	       139	    1200	    11.790
  21.560	       128	    1200	    11.314
  21.580	       143	    1200	    11.958
  21.600	       109	    1200	    10.440
  21.620	       126	    1200	    11.225
  21.640	       127	    1200	    11.269
  21.660	       112	    1200	    10.583
  21.680	       136	    1200	    11.662
  21.700	       127	    1200	    11.269
  21.720	       142	    1200	    11.916
  21.740	       131	    1200	    11.446
  21.760	       106	    1200	    10.296
  21.780	       137	    1200	    11.705
  21.800	       122	    1200	    11.045
  21.820	       138	    1200	    11.747
  21.840	       134	    1200	    11.576
  21.860	       142	    1200	    11.916
  21.880	       127	    1200	    11.269
  21.900	       126	    1200	    11.225
  21.920	       116	    1200	    10.770
  21.940	       118	    1200	    10.863
  21.960	       144	    1200	    12.000
  21.980	       113	    1200	    10.630
  22.000	       126	    1200	    11.225
  22.020	       126	    1200	    11.225
  22.040	       125	    1200	    11.180
  22.060	       134	    1200	    11.576
  22.080	       138	    1200	    11.747
  22.100	       111	    1200	    10.536
  22.120	       114	    1200	    10.677
  22.140	       123	    1200	    11.091
  22.160	       130	    1200	    11.402
  22.180	       105	    1200	    10.247
  22.200	       146	    1200	    12.083
  22.220	       130	    1200	    11.402
  22.240	       127	    1200	    11.269
  22.260	       123	    1200	    11.091
  22.280	       124	    1200	    11.136
  22.300	       118	    1200	    10.863
  22.320	       148	    1200	    12.166
  22.340	       120	    1200	    10.954
  22.360	       123	    1200	    11.091
  22.380	       129	    1200	    11.358
  22.400	       130	    1200	    11.402
  22.420	       164	    1200	    12.806
  22.440	       135	    1200	    11.619
  22.460	       160	    1200	    12.649
  22.480	       152	    1200	    12.329
  22.500	       168	    1200	    12.961
  22.520	       180	    1200	    13.416
  22.540	       177	    1200	    13.304
  22.560	       169	    1200	    13.000
  22.580	       187	    1200	    13.675
  22.600	       190	    1200	    13.784
  22.620	       172	    1200	    13.115
  22.640	       186	    1200	    13.638
  22.660	       154	    1200	    12.410
  22.680	       153	    1200	    12.369
  22.700	       140	    1200	    11.832
  22.720	       140	    1200	    11.832
  22.740	       136	    1200	    11.662
  22.760	       149	    1200	    12.207
  22.780	       146	    1200	    12.083
  22.800	       156	    1200	    12.490
  22.820	       122	    1200	    11.045
  22.840	       132	    1200	    11.489
  22.860	       143	    1200	    11.958
  22.880	       150	    1200	    12.247
  22.900	       173	    1200	    13.153
  22.920	       166	    1200	    12.884
  22.940	       135	    1200	    11.619
  22.960	       123	    1200	    11.091
  22.980	       121	    1200	    11.000
  23.000	       119	    1200	    10.909
  23.020	       135	    1200	    11.619
  23.040	       147	    1200	    12.124
  23.060	       134	    1200	    11.576
  23.080	       146	    1200	    12.083
  23.100	       126	    1200	    11.225
  23.120	       118	    1200	    10.863
  23.140	       125	    1200	    11.180
  23.160	       116	    1200	    10.770
  23.180	       113	    1200	    10.630
  23.200	       143	    1200	    11.958
  23.220	       117	    1200	    10.817
  23.240	       121	    1200	    11.000
  23.260	       131	    1200	    11.446
  23.280	       130	    1200	    11.402
  23.300	       120	    1200	    10.954
  23.320	       123	    1200	    11.091
  23.340	       127	    1200	    11.269
  23.360	       121	    1200	    11.000
  23.380	       120	    1200	    10.954
  23.400	       115	    1200	    10.724
  23.420	       124	    1200	    11.136
  23.440	       121	    1200	    11.000
  23.460	       108	    1200	    10.392
  23.480	       124	    1200	    11.136
  23.500	       140	    1200	    11.832
  23.520	       107	    1200	    10.344
  23.540	       103	    1200	    10.149
  23.560	       115	    1200	    10.724
  23.580	       115	    1200	    10.724
  23.600	       121	    1200	    11.000
  23.620	       109	    1200	    10.440
  23.640	       135	    1200	    11.619
  23.660	       107	    1200	    10.344
  23.680	       124	    1200	    11.136
  23.700	       120	    1200	    10.954
  23.720	       114	    1200	    10.677
  23.740	       116	    1200	    10.770
  23.760	       131	    1200	    11.446
  23.780	       114	    1200	    10.677
  23.800	       105	    1200	    10.247
  23.820	       121	    1200	    11.000
  23.840	       112	    1200	    10.583
  23.860	       121	    1200	    11.000
  23.880	       140	    1200	    11.832
  23.900	       132	    1200	    11.489
  23.920	       122	    1200	    11.045
  23.940	       111	    1200	    10.536
  23.960	       117	    1200	    10.817
  23.980	       115	    1200	    10.724
  24.000	       124	    1200	    11.136
  24.020	       119	    1200	    10.909
  24.040	       108	    1200	    10.392
  24.060	       120	    1200	    10.954
  24.080	       116	    1200	    10.770
  24.100	       102	    1200	    10.100
  24.120	        93	    1200	     9.644
  24.140	       117	    1200	    10.817
  24.160	       116	    1200	    10.770
  24.180	       109	    1200	    10.440
  24.200	       124	    1200	    11.136
  24.220	       103	    1200	    10.149
  24.240	       127	    1200	    11.269
  24.260	       121	    1200	    11.000
  24.280	       117	    1200	    10.817
  24.300	       106	    1200	    10.296
  24.320	       103	    1200	    10.149
  24.340	       102	    1200	    10.100
  24.360	       101	    1200	    10.050
  24.380	       107	    1200	    10.344
  24.400	       117	    1200	    10.817
  24.420	       121	    1200	    11.000
  24.440	       110	    1200	    10.488
  24.460	       107	    1200	    10.344
  24.480	       135	    1200	    11.619
  24.500	       129	    1200	    11.358
  24.520	       111	    1200	    10.536
  24.540	       102	    1200	    10.100
  24.560	       121	    1200	    11.000
  24.580	       128	    1200	    11.314
  24.600	       108	    1200	    10.392
  24.620	       107	    1200	    10.344
  24.640	       109	    1200	    10.440
  24.660	       102	    1200	    10.100
  24.680	       100	    1200	    10.000
  24.700	       103	    1200	    10.149
  24.720	       110	    1200	    10.488
  24.740	       108	    1200	    10.392
  24.760	       137	    1200	    11.705
  24.780	       116	    1200	    10.770
  24.800	       107	    1200	    10.344
  24.820	       106	    1200	    10.296
  24.840	       121	    1200	    11.000
  24.860	       110	    1200	    10.488
  24.880	       108	    1200	    10.392
  24.900	       107	    1200	    10.344
  24.920	       117	    1200	    10.817
  24.940	        98	    1200	     9.899
  24.960	        98	    1200	     9.899
  24.980	       118	    1200	    10.863
  25.000	       118	    1200	    10.863
  25.020	       105	    1200	    10.247
  25.040	        93	    1200	     9.644
  25.060	        98	    1200	     9.899
  25.080	       107	    1200	    10.344
  25.100	       108	    1200	    10.392
  25.120	       101	    1200	    10.050
  25.140	       135	    1200	    11.619
  25.160	       121	    1200	    11.000
  25.180	        96	    1200	     9.798
  25.200	        98	    1200	     9.899
  25.220	       100	    1200	    10.000
  25.240	       127	    1200	    11.269
  25.260	       101	    1200	    10.050
  25.280	       113	    1200	    10.630
  25.300	       107	    1200	    10.344
  25.320	        93	    1200	     9.644
  25.340	       120	    1200	    10.954
  25.360	       111	    1200	    10.536
  25.380	       102	    1200	    10.100
  25.400	       112	    1200	    10.583
  25.420	        93	    1200	     9.644
  25.440	       103	    1200	    10.149
  25.460	       115	    1200	    10.724
  25.480	       130	    1200	    11.402
  25.500	       105	    1200	    10.247
  25.520	        78	    1200	     8.832
  25.540	       106	    1200	    10.296
  25.560	        87	    1200	     9.327
  25.580	        90	    1200	     9.487
  25.600	        96	    1200	     9.798
  25.620	       107	    1200	    10.344
  25.640	        93	    1200	     9.644
  25.660	        96	    1200	     9.798
  25.680	        91	    1200	     9.539
  25.700	        87	    1200	     9.327
  25.720	        83	    1200	     9.110
  25.740	       102	    1200	    10.100
  25.760	        96	    1200	     9.798
  25.780	        96	    1200	     9.798
  25.800	        99	    1200	     9.950
  25.820	        71	    1200	     8.426
  25.840	        90	    1200	     9.487
  25.860	        86	    1200	     9.274
  25.880	       104	    1200	    10.198
  25.900	        92	    1200	     9.592
  25.920	       110	    1200	    10.488
  25.940	        84	    1200	     9.165
  25.960	        81	    1200	     9.000
  25.980	        90	    1200	     9.487
  26.000	        95	    1200	     9.747
  26.020	        91	    1200	     9.539
  26.040	        82	    1200	     9.055
  26.060	        89	    1200	     9.434
  26.080	       101	    1200	    10.050
  26.100	        77	    1200	     8.775
  26.120	        90	    1200	     9.487
  26.140	        82	    1200	     9.055
  26.160	       115	    1200	    10.724
  26.180	        91	    1200	     9.539
  26.200	        83	    1200	     9.110
  26.220	        95	    1200	     9.747
  26.240	        96	    1200	     9.798
  26.260	        81	    1200	     9.000
  26.280	        86	    1200	     9.274
  26.300	        89	    1200	     9.434
  26.320	       100	    1200	    10.000
  26.340	        86	    1200	     9.274
  26.360	        96	    1200	     9.798
  26.380	        83	    1200	     9.110
  26.400	        93	    1200	     9.644
  26.420	        78	    1200	     8.832
  26.440	        97	    1200	     9.849
  26.460	        79	    1200	     8.888
  26.480	        84	    1200	     9.165
  26.500	        94	    1200	     9.695
  26.520	       103	    1200	    10.149
  26.540	        78	    1200	     8.832
  26.560	        74	    1200	     8.602
  26.580	        93	    1200	     9.644
  26.600	        76	    1200	     8.718
  26.620	        94	    1200	     9.695
  26.640	        81	    1200	     9.000
  26.660	        89	    1200	     9.434
  26.680	        94	    1200	     9.695
  26.700	        74	    1200	     8.602
  26.720	        86	    1200	     9.274
  26.740	        98	    1200	     9.899
  26.760	        89	    1200	     9.434
  26.780	        72	    1200	     8.485
  26.800	        81	    1200	     9.000
  26.820	        89	    1200	     9.434
  26.840	        75	    1200	     8.660
  26.860	        70	    1200	     8.367
  26.880	        78	    1200	     8.832
  26.900	        97	    1200	     9.849
  26.920	        88	    1200	     9.381
  26.940	        65	    1200	     8.062
  26.960	        79	    1200	     8.888
  26.980	        64	    1200	     8.000
  27.000	        88	    1200	     9.381
  27.020	        75	    1200	     8.660
  27.040	        92	    1200	     9.592
  27.060	        82	    1200	     9.055
  27.080	        83	    1200	     9.110
  27.100	        81	    1200	     9.000
  27.120	        81	    1200	     9.000
  27.140	        85	    1200	     9.220
  27.160	        89	    1200	     9.434
  27.180	        80	    1200	     8.944
  27.200	        74	    1200	     8.602
  27.220	        88	    1200	     9.381
  27.240	        86	    1200	     9.274
  27.260	        69	    1200	     8.307
  27.280	        82	    1200	     9.055
  27.300	        94	    1200	     9.695
  27.320	        92	    1200	     9.592
  27.340	        87	    1200	     9.327
  27.360	        81	    1200	     9.000
  27.380	        86	    1200	     9.274
  27.400	        57	    1200	     7.550
  27.420	        72	    1200	     8.485
  27.440	        78	    1200	     8.832
  27.460	        70	    1200	     8.367
  27.480	        82	    1200	     9.055
  27.500	        81	    1200	     9.000
  27.520	        78	    1200	     8.832
  27.540	        74	    1200	     8.602
  27.560	        91	    1200	     9.539
  27.580	        91	    1200	     9.539
  27.600	        72	    1200	     8.485
  27.620	        80	    1200	     8.944
  27.640	        80	    1200	     8.944
  27.660	        94	    1200	     9.695
  27.680	        66	    1200	     8.124
  27.700	        75	    1200	     8.660
  27.720	        67	    1200	     8.185
  27.740	        72	    1200	     8.485
  27.760	        73	    1200	     8.544
  27.780	        81	    1200	     9.000
  27.800	        86	    1200	     9.274
  27.820	        68	    1200	     8.246
  27.840	        71	    1200	     8.426
  27.860	        90	    1200	     9.487
  27.880	        85	    1200	     9.220
  27.900	        71	    1200	     8.426
  27.920	        75	    1200	     8.660
  27.940	        64	    1200	     8.000
  27.960	        90	    1200	     9.487
  27.980	        71	    1200	     8.426
  28.000	        83	    1200	     9.110
  28.020	        84	    1200	     9.165
  28.040	        66	    1200	     8.124
  28.060	        74	    1200	     8.602
  28.080	        72	    1200	     8.485
  28.100	        70	    1200	     8.367
  28.120	        95	    1200	     9.747
  28.140	        74	    1200	     8.602
  28.160	        74	    1200	     8.602
  28.180	        69	    1200	     8.307
  28.200	        70	    1200	     8.367
  28.220	        75	    1200	     8.660
  28.240	        63	    1200	     7.937
  28.260	        63	    1200	     7.937
  28.280	        77	    1200	     8.775
  28.300	        76	    1200	     8.718
  28.320	        86	    1200	     9.274
  28.340	        71	    1200	     8.426
  28.360	        73	    1200	     8.544
  28.380	        69	    1200	     8.307
  28.400	        68	    1200	     8.246
  28.420	        77	    1200	     8.775
  28.440	        63	    1200	     7.937
  28.460	        53	    1200	     7.280
  28.480	        65	    1200	     8.062
  28.500	        61	    1200	     7.810
  28.520	        56	    1200	     7.483
  28.540	        59	    1200	     7.681
  28.560	        50	    1200	     7.071
  28.580	        78	    1200	     8.832
  28.600	        75	    1200	     8.660
  28.620	        71	    1200	     8.426
  28.640	        75	    1200	     8.660
  28.660	        67	    1200	     8.185
  28.680	        60	    1200	     7.746
  28.700	        69	    1200	     8.307
  28.720	        56	    1200	     7.483
  28.740	        58	    1200	     7.616
  28.760	        60	    1200	     7.746
  28.780	        54	    1200	     7.348
  28.800	        57	    1200	     7.550
  28.820	        68	    1200	     8.246
  28.840	        85	    1200	     9.220
  28.860	        66	    1200	     8.124
  28.880	        62	    1200	     7.874
  28.900	        60	    1200	     7.746
  28.920	        67	    1200	     8.185
  28.940	        66	    1200	     8.124
  28.960	        72	    1200	     8.485
  28.980	        66	    1200	     8.124
  29.000	        64	    1200	     8.000
  29.020	        56	    1200	     7.483
  29.040	        61	    1200	     7.810
  29.060	        46	    1200	     6.782
  29.080	        66	    1200	     8.124
  29.100	        47	    1200	     6.856
  29.120	        60	    1200	     7.746
  29.140	        63	    1200	     7.937
  29.160	        53	    1200	     7.280
  29.180	        59	    1200	     7.681
  29.200	        70	    1200	     8.367
  29.220	        50	    1200	     7.071
  29.240	        66	    1200	     8.124
  29.260	        60	    1200	     7.746
  29.280	        66	    1200	     8.124
  29.300	        45	    1200	     6.708
  29.320	        59	    1200	     7.681
  29.340	        60	    1200	     7.746
  29.360	        52	    1200	     7.211
  29.380	        51	    1200	     7.141
  29.400	        53	    1200	     7.280
  29.420	        64	    1200	     8.000
  29.440	        47	    1200	     6.856
  29.460	        51	    1200	     7.141
  29.480	        59	    1200	     7.681
  29.500	        75	    1200	     8.660
  29.520	        57	    1200	     7.550
  29.540	        64	    1200	     8.000
  29.560	        67	    1200	     8.185
  29.580	        60	    1200	     7.746
  29.600	        59	    1200	     7.681
  29.620	        45	    1200	     6.708
  29.640	        48	    1200	     6.928
  29.660	        53	    1200	     7.280
  29.680	        71	    1200	     8.426
  29.700	        57	    1200	     7.550
  29.720	        55	    1200	     7.416
  29.740	        65	    1200	     8.062
  29.760	        51	    1200	     7.141
  29.780	        52	    1200	     7.211
  29.800	        52	    1200	     7.211
  29.820	        48	    1200	     6.928
  29.840	        75	    1200	     8.660
  29.860	        63	    1200	     7.937
  29.880	        67	    1200	     8.185
  29.900	        60	    1200	     7.746
  29.920	        61	    1200	     7.810
  29.940	        50	    1200	     7.071
  29.960	        58	    1200	     7.616
  29.980	        61	    1200	     7.810
  30.000	        53	    1200	     7.280
  30.020	        56	    1200	     7.483
  30.040	        55	    1200	     7.416
  30.060	        59	    1200	     7.681
  30.080	        59	    1200	     7.681
  30.100	        69	    1200	     8.307
  30.120	        71	    1200	     8.426
  30.140	        66	    1200	     8.124
  30.160	        54	    1200	     7.348
  30.180	        60	    1200	     7.746
  30.200	        49	    1200	     7.000
  30.220	        76	    1200	     8.718
  30.240	        45	    1200	     6.708
  30.260	        54	    1200	     7.348
  30.280	        65	    1200	     8.062
  30.300	        55	    1200	     7.416
  30.320	        66	    1200	     8.124
  30.340	        56	    1200	     7.483
  30.360	        63	    1200	     7.937
  30.380	        66	    1200	     8.124
  30.400	        52	    1200	     7.211
  30.420	        60	    1200	     7.746
  30.440	        67	    1200	     8.185
  30.460	        72	    1200	     8.485
  30.480	        51	    1200	     7.141
  30.500	        64	    1200	     8.000
  30.520	        53	    1200	     7.280
  30.540	        55	    1200	     7.416
  30.560	        57	    1200	     7.550
  30.580	        62	    1200	     7.874
  30.600	        51	    1200	     7.141
  30.620	        55	    1200	     7.416
  30.640	        57	    1200	     7.550
  30.660	        54	    1200	     7.348
  30.680	        65	    1200	     8.062
  30.700	        67	    1200	     8.185
  30.720	        67	    1200	     8.185
  30.740	        61	    1200	     7.810
  30.760	        56	    1200	     7.483
  30.780	        53	    1200	     7.280
  30.800	        53	    1200	     7.280
  30.820	        66	    1200	     8.124
  30.840	        58	    1200	     7.616
  30.860	        71	    1200	     8.426
  30.880	        80	    1200	     8.944
  30.900	        56	    1200	     7.483
  30.920	        60	    1200	     7.746
  30.940	        67	    1200	     8.185
  30.960	        53	    1200	     7.280
  30.980	        52	    1200	     7.211
  31.000	        59	    1200	     7.681
  31.020	        71	    1200	     8.426
  31.040	        60	    1200	     7.746
  31.060	        68	    1200	     8.246
  31.080	        59	    1200	     7.681
  31.100	        69	    1200	     8.307
  31.120	        57	    1200	     7.550
  31.140	        87	    1200	     9.327
  31.160	        63	    1200	     7.937
  31.180	        83	    1200	     9.110
  31.200	        76	    1200	     8.718
  31.220	        76	    1200	     8.718
  31.240	        78	    1200	     8.832
  31.260	        90	    1200	     9.487
  31.280	        90	    1200	     9.487
  31.300	        79	    1200	     8.888
  31.320	       100	    1200	    10.000
  31.340	       109	    1200	    10.440
  31.360	       126	    1200	    11.225
  31.380	       161	    1200	    12.689
  31.400	       158	    1200	    12.570
  31.420	       151	    1200	    12.288
  31.440	       200	    1200	    14.142
  31.460	       203	    1200	    14.248
  31.480	       232	    1200	    15.232
  31.500	       256	    1200	    16.000
  31.520	       255	    1200	    15.969
  31.540	       292	    1200	    17.088
  31.560	       313	    1200	    17.692
  31.580	       373	    1200	    19.313
  31.600	       431	    1200	    20.761
  31.620	       430	    1200	    20.736
  31.640	       459	    1200	    21.424
  31.660	       471	    1200	    21.703
  31.680	       491	    1200	    22.159
  31.700	       448	    1200	    21.166
  31.720	       434	    1200	    20.833
  31.740	       381	    1200	    19.519
  31.760	       394	    1200	    19.849
  31.780	       372	    1200	    19.287
  31.800	       279	    1200	    16.703
  31.820	       281	    1200	    16.763
  31.840	       266	    1200	    16.310
  31.860	       265	    1200	    16.279
  31.880	       326	    1200	    18.055
  31.900	       280	    1200	    16.733
  31.920	       289	    1200	    17.000
  31.940	       334	    1200	    18.276
  31.960	       381	    1200	    19.519
  31.980	       446	    1200	    21.119
  32.000	       486	    1200	    22.045
  32.020	       606	    1200	    24.617
  32.040	       846	    1200	    29.086
  32.060	       926	    1200	    30.430
  32.080	      1208	    1200	    34.756
  32.100	      1480	    1200	    38.471
  32.120	      1837	    1200	    42.860
  32.140	      2147	    1200	    46.336
  32.160	      2459	    1200	    49.588
  32.180	      2654	    1200	    51.517
  32.200	      2859	    1200	    53.470
  32.220	      2945	    1200	    54.268
  32.240	      2748	    1200	    52.421
  32.260	      2659	    1200	    51.565
  32.280	      2310	    1200	    48.062
  32.300	      1989	    1200	    44.598
  32.320	      1725	    1200	    41.533
  32.340	      1395	    1200	    37.350
  32.360	      1118	    1200	    33.437
  32.380	       852	    1200	    29.189
  32.400	       638	    1200	    25.259
  32.420	       497	    1200	    22.293
  32.440	       433	    1200	    20.809
  32.460	       347	    1200	    18.628
  32.480	       300	    1200	    17.321
  32.500	       261	    1200	    16.155
  32.520	       198	    1200	    14.071
  32.540	       196	    1200	    14.000
  32.560	       184	    1200	    13.565
  32.580	       145	    1200	    12.042
  32.600	       132	    1200	    11.489
  32.620	       116	    1200	    10.770
  32.640	       112	    1200	    10.583
  32.660	       121	    1200	    11.000
  32.680	        93	    1200	     9.644
  32.700	        85	    1200	     9.220
  32.720	        85	    1200	     9.220
  32.740	        89	    1200	     9.434
  32.760	        73	    1200	     8.544
  32.780	        62	    1200	     7.874
  32.800	        84	    1200	     9.165
  32.820	        64	    1200	     8.000
  32.840	        75	    1200	     8.660
  32.860	        61	    1200	     7.810
  32.880	        67	    1200	     8.185
  32.900	        66	    1200	     8.124
  32.920	        65	    1200	     8.062
  32.940	        61	    1200	     7.810
  32.960	        69	    1200	     8.307
  32.980	        64	    1200	     8.000
  33.000	        72	    1200	     8.485
  33.020	        65	    1200	     8.062
  33.040	        54	    1200	     7.348
  33.060	        63	    1200	     7.937
  33.080	        57	    1200	     7.550
  33.100	        45	    1200	     6.708
  33.120	        47	    1200	     6.856
  33.140	        47	    1200	     6.856
  33.160	        62	    1200	     7.874
  33.180	        68	    1200	     8.246
  33.200	        53	    1200	     7.280
  33.220	        48	    1200	     6.928
  33.240	        50	    1200	     7.071
  33.260	        57	    1200	     7.550
  33.280	        61	    1200	     7.810
  33.300	        58	    1200	     7.616
  33.320	        50	    1200	     7.071
  33.340	        54	    1200	     7.348
  33.360	        62	    1200	     7.874
  33.380	        42	    1200	     6.481
  33.400	        55	    1200	     7.416
  33.420	        56	    1200	     7.483
  33.440	        47	    1200	     6.856
  33.460	        61	    1200	     7.810
  33.480	        43	    1200	     6.557
  33.500	        44	    1200	     6.633
  33.520	        41	    1200	     6.403
  33.540	        44	    1200	     6.633
  33.560	        46	    1200	     6.782
  33.580	        47	    1200	     6.856
  33.600	        40	    1200	     6.325
  33.620	        43	    1200	     6.557
  33.640	        48	    1200	     6.928
  33.660	        44	    1200	     6.633
  33.680	        42	    1200	     6.481
  33.700	        33	    1200	     5.745
  33.720	        44	    1200	     6.633
  33.740	        44	    1200	     6.633
  33.760	        42	    1200	     6.481
  33.780	        41	    1200	     6.403
  33.800	        46	    1200	     6.782
  33.820	        42	    1200	     6.481
  33.840	        30	    1200	     5.477
  33.860	        33	    1200	     5.745
  33.880	        50	    1200	     7.071
  33.900	        45	    1200	     6.708
  33.920	        42	    1200	     6.481
  33.940	        32	    1200	     5.657
  33.960	        36	    1200	     6.000
  33.980	        35	    1200	     5.916
  34.000	        28	    1200	     5.292
  34.020	        38	    1200	     6.164
  34.040	        39	    1200	     6.245
  34.060	        50	    1200	     7.071
  34.080	        36	    1200	     6.000
  34.100	        46	    1200	     6.782
  34.120	        38	    1200	     6.164
  34.140	        39	    1200	     6.245
  34.160	        35	    1200	     5.916
  34.180	        33	    1200	     5.745
  34.200	        30	    1200	     5.477
  34.220	        28	    1200	     5.292
  34.240	        39	    1200	     6.245
  34.260	        31	    1200	     5.568
  34.280	        46	    1200	     6.782
  34.300	        29	    1200	     5.385
  34.320	        28	    1200	     5.292
  34.340	        40	    1200	     6.325
  34.360	        25	    1200	     5.000
  34.380	        43	    1200	     6.557
  34.400	        28	    1200	     5.292
  34.420	        30	    1200	     5.477
  34.440	        39	    1200	     6.245
  34.460	        32	    1200	     5.657
  34.480	        32	    1200	     5.657
  34.500	        34	    1200	     5.831
  34.520	        29	    1200	     5.385
  34.540	        36	    1200	     6.000
  34.560	        29	    1200	     5.385
  34.580	        40	    1200	     6.325
  34.600	        25	    1200	     5.000
  34.620	        31	    1200	     5.568
  34.640	        29	    1200	     5.385
  34.660	        25	    1200	     5.000
  34.680	        40	    1200	     6.325
  34.700	        39	    1200	     6.245
  34.720	        29	    1200	     5.385
  34.740	        31	    1200	     5.568
  34.760	        34	    1200	     5.831
  34.780	        24	    1200	     4.899
  34.800	        38	    1200	     6.164
  34.820	        24	    1200	     4.899
  34.840	        34	    1200	     5.831
  34.860	        34	    1200	     5.831
  34.880	        31	    1200	     5.568
  34.900	        34	    1200	     5.831
  34.920	        31	    1200	     5.568
  34.940	        39	    1200	     6.245
  34.960	        29	    1200	     5.385
  34.980	        29	    1200	     5.385
  35.000	        33	    1200	     5.745
  35.020	        27	    1200	     5.196
  35.040	        31	    1200	     5.568
  35.060	        20	    1200	     4.472
  35.080	        30	    1200	     5.477
  35.100	        27	    1200	     5.196
  35.120	        33	    1200	     5.745
  35.140	        30	    1200	     5.477
  35.160	        36	    1200	     6.000
  35.180	        20	    1200	     4.472
  35.200	        25	    1200	     5.000
  35.220	        22	    1200	     4.690
  35.240	        37	    1200	     6.083
  35.260	        25	    1200	     5.000
  35.280	        32	    1200	     5.657
  35.300	        27	    1200	     5.196
  35.320	        27	    1200	     5.196
  35.340	        35	    1200	     5.916
  35.360	        29	    1200	     5.385
  35.380	        21	    1200	     4.583
  35.400	        35	    1200	     5.916
  35.420	        26	    1200	     5.099
  35.440	        23	    1200	     4.796
  35.460	        34	    1200	     5.831
  35.480	        34	    1200	     5.831
  35.500	        26	    1200	     5.099
  35.520	        32	    1200	     5.657
  35.540	        33	    1200	     5.745
  35.560	        21	    1200	     4.583
  35.580	        30	    1200	     5.477
  35.600	        33	    1200	     5.745
  35.620	        20	    1200	     4.472
  35.640	        25	    1200	     5.000
  35.660	        26	    1200	     5.099
  35.680	        27	    1200	     5.196
  35.700	        29	    1200	     5.385
  35.720	        25	    1200	     5.000
  35.740	        31	    1200	     5.568
  35.760	        17	    1200	     4.123
  35.780	        34	    1200	     5.831
  35.800	        28	    1200	     5.292
  35.820	        25	    1200	     5.000
  35.840	        25	    1200	     5.000
  35.860	        27	    1200	     5.196
  35.880	        13	    1200	     3.606
  35.900	        23	    1200	     4.796
  35.920	        23	    1200	     4.796
  35.940	        25	    1200	     5.000
  35.960	        31	    1200	     5.568
  35.980	        24	    1200	     4.899
  36.000	        26	    1200	     5.099
  36.020	        29	    1200	     5.385
  36.040	        19	    1200	     4.359
  36.060	        22	    1200	     4.690
  36.080	        19	    1200	     4.359
  36.100	        29	    1200	     5.385
  36.120	        33	    1200	     5.745
  36.140	        31	    1200	     5.568
  36.160	        21	    1200	     4.583
  36.180	        29	    1200	     5.385
  36.200	        16	    1200	     4.000
  36.220	        17	    1200	     4.123
  36.240	        27	    1200	     5.196
  36.260	        26	    1200	     5.099
  36.280	        25	    1200	     5.000
  36.300	        18	    1200	     4.243
  36.320	        22	    1200	     4.690
  36.340	        20	    1200	     4.472
  36.360	        24	    1200	     4.899
  36.380	        19	    1200	     4.359
  36.400	        25	    1200	     5.000
  36.420	        29	    1200	     5.385
  36.440	        26	    1200	     5.099
  36.460	        17	    1200	     4.123
  36.480	        21	    1200	     4.583
  36.500	        28	    1200	     5.292
  36.520	        24	    1200	     4.899
  36.540	        35	    1200	     5.916
  36.560	        23	    1200	     4.796
  36.580	        23	    1200	     4.796
  36.600	        19	    1200	     4.359
  36.620	        24	    1200	     4.899
  36.640	        23	    1200	     4.796
  36.660	        21	    1200	     4.583
  36.680	        15	    1200	     3.873
  36.700	        28	    1200	     5.292
  36.720	        26	    1200	     5.099
  36.740	        25	    1200	     5.000
  36.760	        20	    1200	     4.472
  36.780	        28	    1200	     5.292
  36.800	        23	    1200	     4.796
  36.820	        34	    1200	     5.831
  36.840	        24	    1200	     4.899
  36.860	        24	    1200	     4.899
  36.880	        27	    1200	     5.196
  36.900	        25	    1200	     5.000
  36.920	        20	    1200	     4.472
  36.940	        40	    1200	     6.325
  36.960	        24	    1200	     4.899
  36.980	        21	    1200	     4.583
  37.000	        21	    1200	     4.583
  37.020	        26	    1200	     5.099
  37.040	        20	    1200	     4.472
  37.060	        18	    1200	     4.243
  37.080	        23	    1200	     4.796
  37.100	        23	    1200	     4.796
  37.120	        22	    1200	     4.690
  37.140	        27	    1200	     5.196
  37.160	        31	    1200	     5.568
  37.180	        20	    1200	     4.472
  37.200	        30	    1200	     5.477
  37.220	        34	    1200	     5.831
  37.240	        46	    1200	     6.782
  37.260	        26	    1200	     5.099
  37.280	        25	    1200	     5.000
  37.300	        31	    1200	     5.568
  37.320	        27	    1200	     5.196
  37.340	        26	    1200	     5.099
  37.360	        27	    1200	     5.196
  37.380	        25	    1200	     5.000
  37.400	        29	    1200	     5.385
  37.420	        26	    1200	     5.099
  37.440	        28	    1200	     5.292
  37.460	        32	    1200	     5.657
  37.480	        27	    1200	     5.196
  37.500	        29	    1200	     5.385
  37.520	        30	    1200	     5.477
  37.540	        25	    1200	     5.000
  37.560	        28	    1200	     5.292
  37.580	        30	    1200	     5.477
  37.600	        26	    1200	     5.099
  37.620	        24	    1200	     4.899
  37.640	        26	    1200	     5.099
  37.660	        23	    1200	     4.796
  37.680	        31	    1200	     5.568
  37.700	        35	    1200	     5.916
  37.720	        24	    1200	     4.899
  37.740	        22	    1200	     4.690
  37.760	        24	    1200	     4.899
  37.780	        26	    1200	     5.099
  37.800	        28	    1200	     5.292
  37.820	        22	    1200	     4.690
  37.840	        24	    1200	     4.899
  37.860	        25	    1200	     5.000
  37.880	        27	    1200	     5.196
  37.900	        21	    1200	     4.583
  37.920	        26	    1200	     5.099
  37.940	        28	    1200	     5.292
  37.960	        21	    1200	     4.583
  37.980	        21	    1200	     4.583
  38.000	        23	    1200	     4.796
  38.020	        29	    1200	     5.385
  38.040	        20	    1200	     4.472
  38.060	        30	    1200	     5.477
  38.080	        16	    1200	     4.000
  38.100	        21	    1200	     4.583
  38.120	        27	    1200	     5.196
  38.140	        32	    1200	     5.657
  38.160	        33	    1200	     5.745
  38.180	        28	    1200	     5.292
  38.200	        23	    1200	     4.796
  38.220	        21	    1200	     4.583
  38.240	        32	    1200	     5.657
  38.260	        25	    1200	     5.000
  38.280	        21	    1200	     4.583
  38.300	        27	    1200	     5.196
  38.320	        23	    1200	     4.796
  38.340	        29	    1200	     5.385
  38.360	        17	    1200	     4.123
  38.380	        21	    1200	     4.583
  38.400	        20	    1200	     4.472
  38.420	        22	    1200	     4.690
  38.440	        28	    1200	     5.292
  38.460	        25	    1200	     5.000
  38.480	        30	    1200	     5.477
  38.500	        23	    1200	     4.796
  38.520	        41	    1200	     6.403
  38.540	        26	    1200	     5.099
  38.560	        34	    1200	     5.831
  38.580	        37	    1200	     6.083
  38.600	        27	    1200	     5.196
  38.620	        25	    1200	     5.000
  38.640	        36	    1200	     6.000
  38.660	        25	    1200	     5.000
  38.680	        30	    1200	     5.477
  38.700	        21	    1200	     4.583
  38.720	        22	    1200	     4.690
  38.740	        35	    1200	     5.916
  38.760	        30	    1200	     5.477
  38.780	        26	    1200	     5.099
  38.800	        28	    1200	     5.292
  38.820	        20	    1200	     4.472
  38.840	        30	    1200	     5.477
  38.860	        41	    1200	     6.403
  38.880	        23	    1200	     4.796
  38.900	        43	    1200	     6.557
  38.920	        30	    1200	     5.477
  38.940	        25	    1200	     5.000
  38.960	        37	    1200	     6.083
  38.980	        32	    1200	     5.657
  39.000	        29	    1200	     5.385
  39.020	        28	    1200	     5.292
  39.040	        20	    1200	     4.472
  39.060	        30	    1200	     5.477
  39.080	        26	    1200	     5.099
  39.100	        36	    1200	     6.000
  39.120	        43	    1200	     6.557
  39.140	        28	    1200	     5.292
  39.160	        21	    1200	     4.583
  39.180	        32	    1200	     5.657
  39.200	        39	    1200	     6.245
  39.220	        37	    1200	     6.083
  39.240	        39	    1200	     6.245
  39.260	        40	    1200	     6.325
  39.280	        37	    1200	     6.083
  39.300	        39	    1200	     6.245
  39.320	        27	    1200	     5.196
  39.340	        36	    1200	     6.000
  39.360	        39	    1200	     6.245
  39.380	        42	    1200	     6.481
  39.400	        33	    1200	     5.745
  39.420	        53	    1200	     7.280
  39.440	        64	    1200	     8.000
  39.460	        61	    1200	     7.810
  39.480	        60	    1200	     7.746
  39.500	        76	    1200	     8.718
  39.520	        61	    1200	     7.810
  39.540	        94	    1200	     9.695
  39.560	        96	    1200	     9.798
  39.580	       120	    1200	    10.954
  39.600	       152	    1200	    12.329
  39.620	       167	    1200	    12.923
  39.640	       217	    1200	    14.731
  39.660	       255	    1200	    15.969
  39.680	       354	    1200	    18.815
  39.700	       351	    1200	    18.735
  39.720	       444	    1200	    21.071
  39.740	       441	    1200	    21.000
  39.760	       441	    1200	    21.000
  39.780	       485	    1200	    22.023
  39.800	       446	    1200	    21.119
  39.820	       454	    1200	    21.307
  39.840	       404	    1200	    20.100
  39.860	       353	    1200	    18.788
  39.880	       325	    1200	    18.028
  39.900	       312	    1200	    17.664
  39.920	       243	    1200	    15.588
  39.940	       226	    1200	    15.033
  39.960	       166	    1200	    12.884
  39.980	       134	    1200	    11.576
  40.000	       128	    1200	    11.314
  40.020	       122	    1200	    11.045
  40.040	        86	    1200	     9.274
  40.060	        96	    1200	     9.798
  40.080	        78	    1200	     8.832
  40.100	        64	    1200	     8.000
  40.120	        68	    1200	     8.246
  40.140	        52	    1200	     7.211
  40.160	        59	    1200	     7.681
  40.180	        40	    1200	     6.325
  40.200	        49	    1200	     7.000
  40.220	        54	    1200	     7.348
  40.240	        31	    1200	     5.568
  40.260	        36	    1200	     6.000
  40.280	        34	    1200	     5.831
  40.300	        37	    1200	     6.083
  40.320	        38	    1200	     6.164
  40.340	        44	    1200	     6.633
  40.360	        48	    1200	     6.928
  40.380	        40	    1200	     6.325
  40.400	        40	    1200	     6.325
  40.420	        30	    1200	     5.477
  40.440	        41	    1200	     6.403
  40.460	        22	    1200	     4.690
  40.480	        32	    1200	     5.657
  40.500	        38	    1200	     6.164
  40.520	        37	    1200	     6.083
  40.540	        28	    1200	     5.292
  40.560	        42	    1200	     6.481
  40.580	        25	    1200	     5.000
  40.600	        30	    1200	     5.477
  40.620	        35	    1200	     5.916
  40.640	        31	    1200	     5.568
  40.660	        32	    1200	     5.657
  40.680	        42	    1200	     6.481
  40.700	        25	    1200	     5.000
  40.720	        40	    1200	     6.325
  40.740	        29	    1200	     5.385
  40.760	        37	    1200	     6.083
  40.780	        39	    1200	     6.245
  40.800	        36	    1200	     6.000
  40.820	        31	    1200	     5.568
  40.840	        38	    1200	     6.164
  40.860	        23	    1200	     4.796
  40.880	        44	    1200	     6.633
  40.900	        37	    1200	     6.083
  40.920	        38	    1200	     6.164
  40.940	        23	    1200	     4.796
  40.960	        37	    1200	     6.083
  40.980	        42	    1200	     6.481
  41.000	        46	    1200	     6.782
  41.020	        43	    1200	     6.557
  41.040	        53	    1200	     7.280
  41.060	        48	    1200	     6.928
  41.080	        46	    1200	     6.782
  41.100	        54	    1200	     7.348
  41.120	        44	    1200	     6.633
  41.140	        60	    1200	     7.746
  41.160	        51	    1200	     7.141
  41.180	        66	    1200	     8.124
  41.200	        61	    1200	     7.810
  41.220	        72	    1200	     8.485
  41.240	        70	    1200	     8.367
  41.260	        70	    1200	     8.367
  41.280	        59	    1200	     7.681
  41.300	        78	    1200	     8.832
  41.320	        71	    1200	     8.426
  41.340	        56	    1200	     7.483
  41.360	        60	    1200	     7.746
  41.380	        76	    1200	     8.718
  41.400	        72	    1200	     8.485
  41.420	        71	    1200	     8.426
  41.440	        75	    1200	     8.660
  41.460	        45	    1200	     6.708
  41.480	        82	    1200	     9.055
  41.500	        62	    1200	     7.874
  41.520	        64	    1200	     8.000
  41.540	        51	    1200	     7.141
  41.560	        59	    1200	     7.681
  41.580	        66	    1200	     8.124
  41.600	        46	    1200	     6.782
  41.620	        56	    1200	     7.483
  41.640	        46	    1200	     6.782
  41.660	        51	    1200	     7.141
  41.680	        65	    1200	     8.062
  41.700	        62	    1200	     7.874
  41.720	        53	    1200	     7.280
  41.740	        39	    1200	     6.245
  41.760	        48	    1200	     6.928
  41.780	        44	    1200	     6.633
  41.800	        47	    1200	     6.856
  41.820	        54	    1200	     7.348
  41.840	        38	    1200	     6.164
  41.860	        58	    1200	     7.616
  41.880	        44	    1200	     6.633
  41.900	        31	    1200	     5.568
  41.920	        41	    1200	     6.403
  41.940	        49	    1200	     7.000
  41.960	        54	    1200	     7.348
  41.980	        35	    1200	     5.916
  42.000	        44	    1200	     6.633
  42.020	        42	    1200	     6.481
  42.040	        34	    1200	     5.831
  42.060	        46	    1200	     6.782
  42.080	        35	    1200	     5.916
  42.100	        37	    1200	     6.083
  42.120	        33	    1200	     5.745
  42.140	        26	    1200	     5.099
  42.160	        31	    1200	     5.568
  42.180	        30	    1200	     5.477
  42.200	        35	    1200	     5.916
  42.220	        33	    1200	     5.745
  42.240	        30	    1200	     5.477
  42.260	        22	    1200	     4.690
  42.280	        43	    1200	     6.557
  42.300	        32	    1200	     5.657
  42.320	        30	    1200	     5.477
  42.340	        28	    1200	     5.292
  42.360	        32	    1200	     5.657
  42.380	        28	    1200	     5.292
  42.400	        33	    1200	     5.745
  42.420	        27	    1200	     5.196
  42.440	        22	    1200	     4.690
  42.460	        24	    1200	     4.899
  42.480	        25	    1200	     5.000
  42.500	        19	    1200	     4.359
  42.520	        28	    1200	     5.292
  42.540	        25	    1200	     5.000
  42.560	        25	    1200	     5.000
  42.580	        29	    1200	     5.385
  42.600	        28	    1200	     5.292
  42.620	        17	    1200	     4.123
  42.640	        32	    1200	     5.657
  42.660	        23	    1200	     4.796
  42.680	        27	    1200	     5.196
  42.700	        19	    1200	     4.359
  42.720	        19	    1200	     4.359
  42.740	        28	    1200	     5.292
  42.760	        21	    1200	     4.583
  42.780	        27	    1200	     5.196
  42.800	        24	    1200	     4.899
  42.820	        25	    1200	     5.000
  42.840	        19	    1200	     4.359
  42.860	        22	    1200	     4.690
  42.880	        24	    1200	     4.899
  42.900	        21	    1200	     4.583
  42.920	        21	    1200	     4.583
  42.940	        18	    1200	     4.243
  42.960	        25	    1200	     5.000
  42.980	        33	    1200	     5.745
  43.000	        24	    1200	     4.899
  43.020	        28	    1200	     5.292
  43.040	        19	    1200	     4.359
  43.060	        16	    1200	     4.000
  43.080	        25	    1200	     5.000
  43.100	        31	    1200	     5.568
  43.120	        25	    1200	     5.000
  43.140	        24	    1200	     4.899
  43.160	        25	    1200	     5.000
  43.180	        30	    1200	     5.477
  43.200	        25	    1200	     5.000
  43.220	        18	    1200	     4.243
  43.240	        24	    1200	     4.899
  43.260	        22	    1200	     4.690
  43.280	        23	    1200	     4.796
  43.300	        28	    1200	     5.292
  43.320	        28	    1200	     5.292
  43.340	        28	    1200	     5.292
  43.360	        32	    1200	     5.657
  43.380	        29	    1200	     5.385
  43.400	        22	    1200	     4.690
  43.420	        18	    1200	     4.243
  43.440	        21	    1200	     4.583
  43.460	        26	    1200	     5.099
  43.480	        15	    1200	     3.873
  43.500	        22	    1200	     4.690
  43.520	        33	    1200	     5.745
  43.540	        23	    1200	     4.796
  43.560	        35	    1200	     5.916
  43.580	        25	    1200	     5.000
  43.600	        18	    1200	     4.243
  43.620	        28	    1200	     5.292
  43.640	        28	    1200	     5.292
  43.660	        20	    1200	     4.472
  43.680	        29	    1200	     5.385
  43.700	        25	    1200	     5.000
  43.720	        25	    1200	     5.000
  43.740	        27	    1200	     5.196
  43.760	        27	    1200	     5.196
  43.780	        42	    1200	     6.481
  43.800	        35	    1200	     5.916
  43.820	        23	    1200	     4.796
  43.840	        28	    1200	     5.292
  43.860	        32	    1200	     5.657
  43.880	        27	    1200	     5.196
  43.900	        28	    1200	     5.292
  43.920	        34	    1200	     5.831
  43.940	        27	    1200	     5.196
  43.960	        34	    1200	     5.831
  43.980	        21	    1200	     4.583
  44.000	        28	    1200	     5.292
  44.020	        43	    1200	     6.557
  44.040	        45	    1200	     6.708
  44.060	        35	    1200	     5.916
  44.080	        36	    1200	     6.000
  44.100	        31	    1200	     5.568
  44.120	        36	    1200	     6.000
  44.140	        43	    1200	     6.557
  44.160	        39	    1200	     6.245
  44.180	        41	    1200	     6.403
  44.200	        46	    1200	     6.782
  44.220	        42	    1200	     6.481
  44.240	        48	    1200	     6.928
  44.260	        41	    1200	     6.403
  44.280	        64	    1200	     8.000
  44.300	        56	    1200	     7.483
  44.320	        65	    1200	     8.062
  44.340	        82	    1200	     9.055
  44.360	        77	    1200	     8.775
  44.380	        93	    1200	     9.644
  44.400	        78	    1200	     8.832
  44.420	        98	    1200	     9.899
  44.440	       112	    1200	    10.583
  44.460	       126	    1200	    11.225
  44.480	       126	    1200	    11.225
  44.500	       144	    1200	    12.000
  44.520	       142	    1200	    11.916
  44.540	       128	    1200	    11.314
  44.560	       165	    1200	    12.845
  44.580	       130	    1200	    11.402
  44.600	       111	    1200	    10.536
  44.620	       137	    1200	    11.705
  44.640	        93	    1200	     9.644
  44.660	       105	    1200	    10.247
  44.680	        97	    1200	     9.849
  44.700	        68	    1200	     8.246
  44.720	        85	    1200	     9.220
  44.740	        89	    1200	     9.434
  44.760	        66	    1200	     8.124
  44.780	        59	    1200	     7.681
  44.800	        55	    1200	     7.416
  44.820	        57	    1200	     7.550
  44.840	        59	    1200	     7.681
  44.860	        55	    1200	     7.416
  44.880	        43	    1200	     6.557
  44.900	        51	    1200	     7.141
  44.920	        44	    1200	     6.633
  44.940	        45	    1200	     6.708
  44.960	        34	    1200	     5.831
  44.980	        50	    1200	     7.071
  45.000	        51	    1200	     7.141
  45.020	        41	    1200	     6.403
  45.040	        39	    1200	     6.245
  45.060	        32	    1200	     5.657
  45.080	        36	    1200	     6.000
  45.100	        41	    1200	     6.403
  45.120	        43	    1200	     6.557
  45.140	        39	    1200	     6.245
  45.160	        37	    1200	     6.083
  45.180	        41	    1200	     6.403
  45.200	        31	    1200	     5.568
  45.220	        48	    1200	     6.928
  45.240	        31	    1200	     5.568
  45.260	        34	    1200	     5.831
  45.280	        36	    1200	     6.000
  45.300	        35	    1200	     5.916
  45.320	        48	    1200	     6.928
  45.340	        49	    1200	     7.000
  45.360	        29	    1200	     5.385
  45.380	        27	    1200	     5.196
  45.400	        44	    1200	     6.633
  45.420	        29	    1200	     5.385
  45.440	        45	    1200	     6.708
  45.460	        40	    1200	     6.325
  45.480	        43	    1200	     6.557
  45.500	        41	    1200	     6.403
  45.520	        42	    1200	     6.481
  45.540	        49	    1200	     7.000
  45.560	        45	    1200	     6.708
  45.580	        46	    1200	     6.782
  45.600	        45	    1200	     6.708
  45.620	        46	    1200	     6.782
  45.640	        40	    1200	     6.325
  45.660	        46	    1200	     6.782
  45.680	        53	    1200	     7.280
  45.700	        51	    1200	     7.141
  45.720	        72	    1200	     8.485
  45.740	        55	    1200	     7.416
  45.760	        73	    1200	     8.544
  45.780	        60	    1200	     7.746
  45.800	        69	    1200	     8.307
  45.820	        83	    1200	     9.110
  45.840	        77	    1200	     8.775
  45.860	        83	    1200	     9.110
  45.880	        94	    1200	     9.695
  45.900	        95	    1200	     9.747
  45.920	       109	    1200	    10.440
  45.940	       126	    1200	    11.225
  45.960	       127	    1200	    11.269
  45.980	       137	    1200	    11.705
  46.000	       149	    1200	    12.207
  46.020	       206	    1200	    14.353
  46.040	       233	    1200	    15.264
  46.060	       248	    1200	    15.748
  46.080	       270	    1200	    16.432
  46.100	       354	    1200	    18.815
  46.120	       384	    1200	    19.596
  46.140	       492	    1200	    22.181
  46.160	       594	    1200	    24.372
  46.180	       663	    1200	    25.749
  46.200	       810	    1200	    28.460
  46.220	       918	    1200	    30.299
  46.240	       898	    1200	    29.967
  46.260	      1080	    1200	    32.863
  46.280	      1107	    1200	    33.272
  46.300	      1109	    1200	    33.302
  46.320	      1093	    1200	    33.061
  46.340	      1133	    1200	    33.660
  46.360	       998	    1200	    31.591
  46.380	      1011	    1200	    31.796
  46.400	       903	    1200	    30.050
  46.420	       792	    1200	    28.142
  46.440	       721	    1200	    26.851
  46.460	       640	    1200	    25.298
  46.480	       563	    1200	    23.728
  46.500	       472	    1200	    21.726
  46.520	       406	    1200	    20.149
  46.540	       340	    1200	    18.439
  46.560	       297	    1200	    17.234
  46.580	       269	    1200	    16.401
  46.600	       190	    1200	    13.784
  46.620	       127	    1200	    11.269
  46.640	       122	    1200	    11.045
  46.660	       141	    1200	    11.874
  46.680	       105	    1200	    10.247
  46.700	       113	    1200	    10.630
  46.720	        80	    1200	     8.944
  46.740	        75	    1200	     8.660
  46.760	        66	    1200	     8.124
  46.780	        62	    1200	     7.874
  46.800	        81	    1200	     9.000
  46.820	        53	    1200	     7.280
  46.840	        49	    1200	     7.000
  46.860	        57	    1200	     7.550
  46.880	        53	    1200	     7.280
  46.900	        51	    1200	     7.141
  46.920	        39	    1200	     6.245
  46.940	        33	    1200	     5.745
  46.960	        34	    1200	     5.831
  46.980	        39	    1200	     6.245
  47.000	        45	    1200	     6.708
  47.020	        40	    1200	     6.325
  47.040	        30	    1200	     5.477
  47.060	        38	    1200	     6.164
  47.080	        35	    1200	     5.916
  47.100	        35	    1200	     5.916
  47.120	        40	    1200	     6.325
  47.140	        28	    1200	     5.292
  47.160	        33	    1200	     5.745
  47.180	        32	    1200	     5.657
  47.200	        33	    1200	     5.745
  47.220	        34	    1200	     5.831
  47.240	        29	    1200	     5.385
  47.260	        24	    1200	     4.899
  47.280	        30	    1200	     5.477
  47.300	        34	    1200	     5.831
  47.320	        37	    1200	     6.083
  47.340	        32	    1200	     5.657
  47.360	        32	    1200	     5.657
  47.380	        41	    1200	     6.403
  47.400	        31	    1200	     5.568
  47.420	        25	    1200	     5.000
  47.440	        26	    1200	     5.099
  47.460	        38	    1200	     6.164
  47.480	        29	    1200	     5.385
  47.500	        36	    1200	     6.000
  47.520	        39	    1200	     6.245
  47.540	        29	    1200	     5.385
  47.560	        25	    1200	     5.000
  47.580	        25	    1200	     5.000
  47.600	        24	    1200	     4.899
  47.620	        21	    1200	     4.583
  47.640	        19	    1200	     4.359
  47.660	        28	    1200	     5.292
  47.680	        22	    1200	     4.690
  47.700	        34	    1200	     5.831
  47.720	        26	    1200	     5.099
  47.740	        22	    1200	     4.690
  47.760	        30	    1200	     5.477
  47.780	        32	    1200	     5.657
  47.800	        31	    1200	     5.568
  47.820	        24	    1200	     4.899
  47.840	        13	    1200	     3.606
  47.860	        28	    1200	     5.292
  47.880	        28	    1200	     5.292
  47.900	        26	    1200	     5.099
  47.920	        18	    1200	     4.243
  47.940	        31	    1200	     5.568
  47.960	        19	    1200	     4.359
  47.980	        32	    1200	     5.657
  48.000	        16	    1200	     4.000
  48.020	        19	    1200	     4.359
  48.040	        24	    1200	     4.899
  48.060	        24	    1200	     4.899
  48.080	        27	    1200	     5.196
  48.100	        25	    1200	     5.000
  48.120	        26	    1200	     5.099
  48.140	        29	    1200	     5.385
  48.160	        20	    1200	     4.472
  48.180	        28	    1200	     5.292
  48.200	        21	    1200	     4.583
  48.220	        26	    1200	     5.099
  48.240	        14	    1200	     3.742
  48.260	        31	    1200	     5.568
  48.280	        21	    1200	     4.583
  48.300	        22	    1200	     4.690
  48.320	        23	    1200	     4.796
  48.340	        25	    1200	     5.000
  48.360	        24	    1200	     4.899
  48.380	        17	    1200	     4.123
  48.400	        17	    1200	     4.123
  48.420	        29	    1200	     5.385
  48.440	        16	    1200	     4.000
  48.460	        25	    1200	     5.000
  48.480	        23	    1200	     4.796
  48.500	        20	    1200	     4.472
  48.520	        22	    1200	     4.690
  48.540	        25	    1200	     5.000
  48.560	        27	    1200	     5.196
  48.580	        25	    1200	     5.000
  48.600	        22	    1200	     4.690
  48.620	        20	    1200	     4.472
  48.640	        13	    1200	     3.606
  48.660	        18	    1200	     4.243
  48.680	        21	    1200	     4.583
  48.700	        14	    1200	     3.742
  48.720	        19	    1200	     4.359
  48.740	        10	    1200	     3.162
  48.760	        26	    1200	     5.099
  48.780	        17	    1200	     4.123
  48.800	        18	    1200	     4.243
  48.820	        26	    1200	     5.099
  48.840	        21	    1200	     4.583
  48.860	        25	    1200	     5.000
  48.880	        23	    1200	     4.796
  48.900	        22	    1200	     4.690
  48.920	        18	    1200	     4.243
  48.940	        18	    1200	     4.243
  48.960	        25	    1200	     5.000
  48.980	        17	    1200	     4.123
  49.000	        15	    1200	     3.873
  49.020	        12	    1200	     3.464
  49.040	        18	    1200	     4.243
  49.060	        17	    1200	     4.123
  49.080	        29	    1200	     5.385
  49.100	        22	    1200	     4.690
  49.120	        16	    1200	     4.000
  49.140	        24	    1200	     4.899
  49.160	        21	    1200	     4.583
  49.180	        27	    1200	     5.196
  49.200	        21	    1200	     4.583
  49.220	         9	    1200	     3.000
  49.240	        24	    1200	     4.899
  49.260	         9	    1200	     3.000
  49.280	        19	    1200	     4.359
  49.300	        12	    1200	     3.464
  49.320	        18	    1200	     4.243
  49.340	        22	    1200	     4.690
  49.360	        19	    1200	     4.359
  49.380	        17	    1200	     4.123
  49.400	        18	    1200	     4.243
  49.420	        14	    1200	     3.742
  49.440	        13	    1200	     3.606
  49.460	        18	    1200	     4.243
  49.480	         9	    1200	     3.000
  49.500	        15	    1200	     3.873
  49.520	        14	    1200	     3.742
  49.540	        16	    1200	     4.000
  49.560	        14	    1200	     3.742
  49.580	        11	    1200	     3.317
  49.600	        19	    1200	     4.359
  49.620	         7	    1200	     2.646
  49.640	        19	    1200	     4.359
  49.660	        20	    1200	     4.472
  49.680	        17	    1200	     4.123
  49.700	        15	    1200	     3.873
  49.720	        13	    1200	     3.606
  49.740	        19	    1200	     4.359
  49.760	        23	    1200	     4.796
  49.780	         9	    1200	     3.000
  49.800	        15	    1200	     3.873
  49.820	        22	    1200	     4.690
  49.840	        21	    1200	     4.583
  49.860	        17	    1200	     4.123
  49.880	        12	    1200	     3.464
  49.900	        24	    1200	     4.899
  49.920	        20	    1200	     4.472
  49.940	        23	    1200	     4.796
  49.960	        15	    1200	     3.873
  49.980	        16	    1200	     4.000
  50.000	        14	    1200	     3.742
  50.020	        25	    1200	     5.000
  50.040	        21	    1200	     4.583
  50.060	        21	    1200	     4.583
  50.080	        11	    1200	     3.317
  50.100	        21	    1200	     4.583
  50.120	        14	    1200	     3.742
  50.140	        15	    1200	     3.873
  50.160	        26	    1200	     5.099
  50.180	        14	    1200	     3.742
  50.200	        25	    1200	     5.000
  50.220	        20	    1200	     4.472
  50.240	        20	    1200	     4.472
  50.260	        17	    1200	     4.123
  50.280	        14	    1200	     3.742
  50.300	        25	    1200	     5.000
  50.320	        23	    1200	     4.796
  50.340	        18	    1200	     4.243
  50.360	        17	    1200	     4.123
  50.380	        11	    1200	     3.317
  50.400	        17	    1200	     4.123
  50.420	        16	    1200	     4.000
  50.440	        11	    1200	     3.317
  50.460	        14	    1200	     3.742
  50.480	        19	    1200	     4.359
  50.500	        19	    1200	     4.359
  50.520	         8	    1200	     2.828
  50.540	        17	    1200	     4.123
  50.560	        19	    1200	     4.359
  50.580	        17	    1200	     4.123
  50.600	        20	    1200	     4.472
  50.620	        17	    1200	     4.123
  50.640	        18	    1200	     4.243
  50.660	        14	    1200	     3.742
  50.680	        17	    1200	     4.123
  50.700	        16	    1200	     4.000
  50.720	        18	    1200	     4.243
  50.740	        13	    1200	     3.606
  50.760	        27	    1200	     5.196
  50.780	        12	    1200	     3.464
  50.800	        13	    1200	     3.606
  50.820	        20	    1200	     4.472
  50.840	        16	    1200	     4.000
  50.860	        17	    1200	     4.123
  50.880	        11	    1200	     3.317
  50.900	        10	    1200	     3.162
  50.920	         8	    1200	     2.828
  50.940	        16	    1200	     4.000
  50.960	        15	    1200	     3.873
  50.980	        12	    1200	     3.464
  51.000	        23	    1200	     4.796
  51.020	        15	    1200	     3.873
  51.040	        23	    1200	     4.796
  51.060	        20	    1200	     4.472
  51.080	        14	    1200	     3.742
  51.100	        12	    1200	     3.464
  51.120	        13	    1200	     3.606
  51.140	        16	    1200	     4.000
  51.160	        17	    1200	     4.123
  51.180	        20	    1200	     4.472
  51.200	        16	    1200	     4.000
  51.220	         4	    1200	     2.000
  51.240	        16	    1200	     4.000
  51.260	        16	    1200	     4.000
  51.280	        23	    1200	     4.796
  51.300	        18	    1200	     4.243
  51.320	        17	    1200	     4.123
  51.340	        21	    1200	     4.583
  51.360	        15	    1200	     3.873
  51.380	        18	    1200	     4.243
  51.400	        18	    1200	     4.243
  51.420	        16	    1200	     4.000
  51.440	        20	    1200	     4.472
  51.460	        17	    1200	     4.123
  51.480	        22	    1200	     4.690
  51.500	        18	    1200	     4.243
  51.520	        15	    1200	     3.873
  51.540	        14	    1200	     3.742
  51.560	        19	    1200	     4.359
  51.580	        26	    1200	     5.099
  51.600	        15	    1200	     3.873
  51.620	        13	    1200	     3.606
  51.640	        20	    1200	     4.472
  51.660	        19	    1200	     4.359
  51.680	        15	    1200	     3.873
  51.700	        13	    1200	     3.606
  51.720	        13	    1200	     3.606
  51.740	        26	    1200	     5.099
  51.760	        22	    1200	     4.690
  51.780	        20	    1200	     4.472
  51.800	        22	    1200	     4.690
  51.820	        12	    1200	     3.464
  51.840	        23	    1200	     4.796
  51.860	        23	    1200	     4.796
  51.880	        22	    1200	     4.690
  51.900	        21	    1200	     4.583
  51.920	        21	    1200	     4.583
  51.940	        41	    1200	     6.403
  51.960	        28	    1200	     5.292
  51.980	        35	    1200	     5.916
  52.000	        28	    1200	     5.292
  52.020	        33	    1200	     5.745
  52.040	        49	    1200	     7.000
  52.060	        51	    1200	     7.141
  52.080	        50	    1200	     7.071
  52.100	        53	    1200	     7.280
  52.120	        61	    1200	     7.810
  52.140	        65	    1200	     8.062
  52.160	        71	    1200	     8.426
  52.180	        57	    1200	     7.550
  52.200	        62	    1200	     7.874
  52.220	        75	    1200	     8.660
  52.240	        57	    1200	     7.550
  52.260	        58	    1200	     7.616
  52.280	        56	    1200	     7.483
  52.300	        46	    1200	     6.782
  52.320	        42	    1200	     6.481
  52.340	        49	    1200	     7.000
  52.360	        54	    1200	     7.348
  52.380	        44	    1200	     6.633
  52.400	        41	    1200	     6.403
  52.420	        38	    1200	     6.164
  52.440	        42	    1200	     6.481
  52.460	        23	    1200	     4.796
  52.480	        25	    1200	     5.000
  52.500	        29	    1200	     5.385
  52.520	        23	    1200	     4.796
  52.540	        29	    1200	     5.385
  52.560	        27	    1200	     5.196
  52.580	        31	    1200	     5.568
  52.600	        13	    1200	     3.606
  52.620	        24	    1200	     4.899
  52.640	        13	    1200	     3.606
  52.660	        22	    1200	     4.690
  52.680	        14	    1200	     3.742
  52.700	        23	    1200	     4.796
  52.720	        20	    1200	     4.472
  52.740	        20	    1200	     4.472
  52.760	        24	    1200	     4.899
  52.780	        20	    1200	     4.472
  52.800	        16	    1200	     4.000
  52.820	        25	    1200	     5.000
  52.840	        22	    1200	     4.690
  52.860	        24	    1200	     4.899
  52.880	        23	    1200	     4.796
  52.900	        24	    1200	     4.899
  52.920	        23	    1200	     4.796
  52.940	        23	    1200	     4.796
  52.960	        16	    1200	     4.000
  52.980	        21	    1200	     4.583
  53.000	        32	    1200	     5.657
  53.020	        25	    1200	     5.000
  53.040	        19	    1200	     4.359
  53.060	        18	    1200	     4.243
  53.080	        28	    1200	     5.292
  53.100	        23	    1200	     4.796
  53.120	        18	    1200	     4.243
  53.140	        20	    1200	     4.472
  53.160	        15	    1200	     3.873
  53.180	        20	    1200	     4.472
  53.200	        18	    1200	     4.243
  53.220	        29	    1200	     5.385
  53.240	        28	    1200	     5.292
  53.260	        23	    1200	     4.796
  53.280	        24	    1200	     4.899
  53.300	        21	    1200	     4.583
  53.320	        24	    1200	     4.899
  53.340	        11	    1200	     3.317
  53.360	        20	    1200	     4.472
  53.380	        23	    1200	     4.796
  53.400	        12	    1200	     3.464
  53.420	        28	    1200	     5.292
  53.440	        28	    1200	     5.292
  53.460	        20	    1200	     4.472
  53.480	        26	    1200	     5.099
  53.500	        24	    1200	     4.899
  53.520	        13	    1200	     3.606
  53.540	        29	    1200	     5.385
  53.560	        19	    1200	     4.359
  53.580	        23	    1200	     4.796
  53.600	        11	    1200	     3.317
  53.620	        25	    1200	     5.000
  53.640	        29	    1200	     5.385
  53.660	        24	    1200	     4.899
  53.680	        19	    1200	     4.359
  53.700	        25	    1200	     5.000
  53.720	        15	    1200	     3.873
  53.740	        24	    1200	     4.899
  53.760	        30	    1200	     5.477
  53.780	        25	    1200	     5.000
  53.800	        23	    1200	     4.796
  53.820	        23	    1200	     4.796
  53.840	        24	    1200	     4.899
  53.860	        26	    1200	     5.099
  53.880	        24	    1200	     4.899
  53.900	        23	    1200	     4.796
  53.920	        26	    1200	     5.099
  53.940	        28	    1200	     5.292
  53.960	        20	    1200	     4.472
  53.980	        25	    1200	     5.000
  54.000	        24	    1200	     4.899
  54.020	        33	    1200	     5.745
  54.040	        24	    1200	     4.899
  54.060	        25	    1200	     5.000
  54.080	        21	    1200	     4.583
  54.100	        34	    1200	     5.831
  54.120	        19	    1200	     4.359
  54.140	        26	    1200	     5.099
  54.160	        22	    1200	     4.690
  54.180	        16	    1200	     4.000
  54.200	        22	    1200	     4.690
  54.220	        14	    1200	     3.742
  54.240	        15	    1200	     3.873
  54.260	        17	    1200	     4.123
  54.280	        19	    1200	     4.359
  54.300	        27	    1200	     5.196
  54.320	        20	    1200	     4.472
  54.340	        16	    1200	     4.000
  54.360	        25	    1200	     5.000
  54.380	        22	    1200	     4.690
  54.400	        19	    1200	     4.359
  54.420	        24	    1200	     4.899
  54.440	        30	    1200	     5.477
  54.460	        27	    1200	     5.196
  54.480	        21	    1200	     4.583
  54.500	        22	    1200	     4.690
  54.520	        17	    1200	     4.123
  54.540	        23	    1200	     4.796
  54.560	        25	    1200	     5.000
  54.580	        22	    1200	     4.690
  54.600	        24	    1200	     4.899
  54.620	        22	    1200	     4.690
  54.640	        13	    1200	     3.606
  54.660	        11	    1200	     3.317
  54.680	        17	    1200	     4.123
  54.700	        26	    1200	     5.099
  54.720	        22	    1200	     4.690
  54.740	        24	    1200	     4.899
  54.760	        28	    1200	     5.292
  54.780	        20	    1200	     4.472
  54.800	        14	    1200	     3.742
  54.820	        25	    1200	     5.000
  54.840	        18	    1200	     4.243
  54.860	        25	    1200	     5.000
  54.880	        22	    1200	     4.690
  54.900	        14	    1200	     3.742
  54.920	        18	    1200	     4.243
  54.940	        13	    1200	     3.606
  54.960	        21	    1200	     4.583
  54.980	        27	    1200	     5.196
  55.000	        19	    1200	     4.359
  55.020	        19	    1200	     4.359
  55.040	        31	    1200	     5.568
  55.060	        26	    1200	     5.099
  55.080	        21	    1200	     4.583
  55.100	        25	    1200	     5.000
  55.120	        20	    1200	     4.472
  55.140	        21	    1200	     4.583
  55.160	        21	    1200	     4.583
  55.180	        19	    1200	     4.359
  55.200	        27	    1200	     5.196
  55.220	        26	    1200	     5.099
  55.240	        25	    1200	     5.000
  55.260	        28	    1200	     5.292
  55.280	        23	    1200	     4.796
  55.300	        21	    1200	     4.583
  55.320	        23	    1200	     4.796
  55.340	        22	    1200	     4.690
  55.360	        26	    1200	     5.099
  55.380	        22	    1200	     4.690
  55.400	        29	    1200	     5.385
  55.420	        21	    1200	     4.583
  55.440	        18	    1200	     4.243
  55.460	        38	    1200	     6.164
  55.480	        29	    1200	     5.385
  55.500	        27	    1200	     5.196
  55.520	        30	    1200	     5.477
  55.540	        25	    1200	     5.000
  55.560	        41	    1200	     6.403
  55.580	        26	    1200	     5.099
  55.600	        28	    1200	     5.292
  55.620	        31	    1200	     5.568
  55.640	        35	    1200	     5.916
  55.660	        30	    1200	     5.477
  55.680	        26	    1200	     5.099
  55.700	        21	    1200	     4.583
  55.720	        38	    1200	     6.164
  55.740	        16	    1200	     4.000
  55.760	        42	    1200	     6.481
  55.780	        33	    1200	     5.745
  55.800	        41	    1200	     6.403
  55.820	        38	    1200	     6.164
  55.840	        38	    1200	     6.164
  55.860	        48	    1200	     6.928
  55.880	        48	    1200	     6.928
  55.900	        32	    1200	     5.657
  55.920	        37	    1200	     6.083
  55.940	        38	    1200	     6.164
  55.960	        47	    1200	     6.856
  55.980	        54	    1200	     7.348
  56.000	        46	    1200	     6.782
  56.020	        51	    1200	     7.141
  56.040	        51	    1200	     7.141
  56.060	        51	    1200	     7.141
  56.080	        59	    1200	     7.681
  56.100	        61	    1200	     7.810
  56.120	        47	    1200	     6.856
  56.140	        52	    1200	     7.211
  56.160	        68	    1200	     8.246
  56.180	        54	    1200	     7.348
  56.200	        54	    1200	     7.348
  56.220	        62	    1200	     7.874
  56.240	        61	    1200	     7.810
  56.260	        55	    1200	     7.416
  56.280	        60	    1200	     7.746
  56.300	        66	    1200	     8.124
  56.320	        63	    1200	     7.937
  56.340	        39	    1200	     6.245
  56.360	        67	    1200	     8.185
  56.380	        60	    1200	     7.746
  56.400	        61	    1200	     7.810
  56.420	        54	    1200	     7.348
  56.440	        45	    1200	     6.708
  56.460	        52	    1200	     7.211
  56.480	        35	    1200	     5.916
  56.500	        41	    1200	     6.403
  56.520	        47	    1200	     6.856
  56.540	        30	    1200	     5.477
  56.560	        42	    1200	     6.481
  56.580	        39	    1200	     6.245
  56.600	        47	    1200	     6.856
  56.620	        43	    1200	     6.557
  56.640	        33	    1200	     5.745
  56.660	        36	    1200	     6.000
  56.680	        47	    1200	     6.856
  56.700	        46	    1200	     6.782
  56.720	        41	    1200	     6.403
  56.740	        52	    1200	     7.211
  56.760	        43	    1200	     6.557
  56.780	        53	    1200	     7.280
  56.800	        46	    1200	     6.782
  56.820	        48	    1200	     6.928
  56.840	        51	    1200	     7.141
  56.860	        56	    1200	     7.483
  56.880	        36	    1200	     6.000
  56.900	        51	    1200	     7.141
  56.920	        62	    1200	     7.874
  56.940	        59	    1200	     7.681
  56.960	        64	    1200	     8.000
  56.980	        70	    1200	     8.367
  57.000	        68	    1200	     8.246
  57.020	        60	    1200	     7.746
  57.040	        77	    1200	     8.775
  57.060	        80	    1200	     8.944
  57.080	        71	    1200	     8.426
  57.100	        93	    1200	     9.644
  57.120	       115	    1200	    10.724
  57.140	       111	    1200	    10.536
  57.160	       121	    1200	    11.000
  57.180	       155	    1200	    12.450
  57.200	       166	    1200	    12.884
  57.220	       195	    1200	    13.964
  57.240	       245	    1200	    15.652
  57.260	       251	    1200	    15.843
  57.280	       309	    1200	    17.578
  57.300	       311	    1200	    17.635
  57.320	       347	    1200	    18.628
  57.340	       345	    1200	    18.574
  57.360	       362	    1200	    19.026
  57.380	       396	    1200	    19.900
  57.400	       447	    1200	    21.142
  57.420	       513	    1200	    22.650
  57.440	       499	    1200	    22.338
  57.460	       605	    1200	    24.597
  57.480	       654	    1200	    25.573
  57.500	       709	    1200	    26.627
  57.520	       766	    1200	    27.677
  57.540	       830	    1200	    28.810
  57.560	       835	    1200	    28.896
  57.580	       860	    1200	    29.326
  57.600	       864	    1200	    29.394
  57.620	       865	    1200	    29.411
  57.640	       824	    1200	    28.705
  57.660	       776	    1200	    27.857
  57.680	       757	    1200	    27.514
  57.700	       684	    1200	    26.153
  57.720	       646	    1200	    25.417
  57.740	       633	    1200	    25.159
  57.760	       578	    1200	    24.042
  57.780	       472	    1200	    21.726
  57.800	       480	    1200	    21.909
  57.820	       403	    1200	    20.075
  57.840	       356	    1200	    18.868
  57.860	       309	    1200	    17.578
  57.880	       274	    1200	    16.553
  57.900	       232	    1200	    15.232
  57.920	       212	    1200	    14.560
  57.940	       198	    1200	    14.071
  57.960	       148	    1200	    12.166
  57.980	       122	    1200	    11.045
  58.000	       107	    1200	    10.344
  58.020	       118	    1200	    10.863
  58.040	        95	    1200	     9.747
  58.060	        94	    1200	     9.695
  58.080	        83	    1200	     9.110
  58.100	        77	    1200	     8.775
  58.120	        69	    1200	     8.307
  58.140	        74	    1200	     8.602
  58.160	        75	    1200	     8.660
  58.180	        43	    1200	     6.557
  58.200	        49	    1200	     7.000
  58.220	        48	    1200	     6.928
  58.240	        44	    1200	     6.633
  58.260	        46	    1200	     6.782
  58.280	        49	    1200	     7.000
  58.300	        45	    1200	     6.708
  58.320	        41	    1200	     6.403
  58.340	        35	    1200	     5.916
  58.360	        33	    1200	     5.745
  58.380	        28	    1200	     5.292
  58.400	        30	    1200	     5.477
  58.420	        41	    1200	     6.403
  58.440	        45	    1200	     6.708
  58.460	        40	    1200	     6.325
  58.480	        29	    1200	     5.385
  58.500	        40	    1200	     6.325
  58.520	        32	    1200	     5.657
  58.540	        34	    1200	     5.831
  58.560	        42	    1200	     6.481
  58.580	        35	    1200	     5.916
  58.600	        32	    1200	     5.657
  58.620	        30	    1200	     5.477
  58.640	        30	    1200	     5.477
  58.660	        27	    1200	     5.196
  58.680	        30	    1200	     5.477
  58.700	        44	    1200	     6.633
  58.720	        38	    1200	     6.164
  58.740	        30	    1200	     5.477
  58.760	        31	    1200	     5.568
  58.780	        29	    1200	     5.385
  58.800	        36	    1200	     6.000
  58.820	        19	    1200	     4.359
  58.840	        29	    1200	     5.385
  58.860	        27	    1200	     5.196
  58.880	        22	    1200	     4.690
  58.900	        29	    1200	     5.385
  58.920	        26	    1200	     5.099
  58.940	        25	    1200	     5.000
  58.960	        31	    1200	     5.568
  58.980	        23	    1200	     4.796
  59.000	        19	    1200	     4.359
  59.020	        24	    1200	     4.899
  59.040	        23	    1200	     4.796
  59.060	        34	    1200	     5.831
  59.080	        32	    1200	     5.657
  59.100	        35	    1200	     5.916
  59.120	        21	    1200	     4.583
  59.140	        29	    1200	     5.385
  59.160	        32	    1200	     5.657
  59.180	        24	    1200	     4.899
  59.200	        25	    1200	     5.000
  59.220	        15	    1200	     3.873
  59.240	        19	    1200	     4.359
  59.260	        30	    1200	     5.477
  59.280	        29	    1200	     5.385
  59.300	        17	    1200	     4.123
  59.320	        33	    1200	     5.745
  59.340	        22	    1200	     4.690
  59.360	        17	    1200	     4.123
  59.380	        28	    1200	     5.292
  59.400	        23	    1200	     4.796
  59.420	        13	    1200	     3.606
  59.440	        16	    1200	     4.000
  59.460	        19	    1200	     4.359
  59.480	        30	    1200	     5.477
  59.500	        25	    1200	     5.000
  59.520	        27	    1200	     5.196
  59.540	        29	    1200	     5.385
  59.560	        33	    1200	     5.745
  59.580	        24	    1200	     4.899
  59.600	        25	    1200	     5.000
  59.620	        22	    1200	     4.690
  59.640	        25	    1200	     5.000
  59.660	        19	    1200	     4.359
  59.680	        25	    1200	     5.000
  59.700	        21	    1200	     4.583
  59.720	        20	    1200	     4.472
  59.740	        30	    1200	     5.477
  59.760	        24	    1200	     4.899
  59.780	        26	    1200	     5.099
  59.800	        18	    1200	     4.243
  59.820	        20	    1200	     4.472
  59.840	        23	    1200	     4.796
  59.860	        22	    1200	     4.690
  59.880	        27	    1200	     5.196
  59.900	        19	    1200	     4.359
  59.920	        17	    1200	     4.123
  59.940	        14	    1200	     3.742
  59.960	        21	    1200	     4.583
  59.980	        27	    1200	     5.196
  60.000	        24	    1200	     4.899
  60.020	        22	    1200	     4.690
  60.040	        18	    1200	     4.243
  60.060	        20	    1200	     4.472
  60.080	        24	    1200	     4.899
  60.100	        26	    1200	     5.099
  60.120	        22	    1200	     4.690
  60.140	        23	    1200	     4.796
  60.160	        28	    1200	     5.292
  60.180	        21	    1200	     4.583
  60.200	        11	    1200	     3.317
  60.220	        15	    1200	     3.873
  60.240	        20	    1200	     4.472
  60.260	        23	    1200	     4.796
  60.280	        23	    1200	     4.796
  60.300	        15	    1200	     3.873
  60.320	        17	    1200	     4.123
  60.340	        24	    1200	     4.899
  60.360	        17	    1200	     4.123
  60.380	        26	    1200	     5.099
  60.400	        25	    1200	     5.000
  60.420	        25	    1200	     5.000
  60.440	        20	    1200	     4.472
  60.460	        34	    1200	     5.831
  60.480	        18	    1200	     4.243
  60.500	        27	    1200	     5.196
  60.520	        26	    1200	     5.099
  60.540	        19	    1200	     4.359
  60.560	        21	    1200	     4.583
  60.580	        22	    1200	     4.690
  60.600	         9	    1200	     3.000
  60.620	        24	    1200	     4.899
  60.640	        19	    1200	     4.359
  60.660	        23	    1200	     4.796
  60.680	        16	    1200	     4.000
  60.700	        15	    1200	     3.873
  60.720	        20	    1200	     4.472
  60.740	        24	    1200	     4.899
  60.760	        21	    1200	     4.583
  60.780	        32	    1200	     5.657
  60.800	        24	    1200	     4.899
  60.820	        22	    1200	     4.690
  60.840	        20	    1200	     4.472
  60.860	        20	    1200	     4.472
  60.880	        12	    1200	     3.464
  60.900	        16	    1200	     4.000
  60.920	        24	    1200	     4.899
  60.940	        14	    1200	     3.742
  60.960	        16	    1200	     4.000
  60.980	        29	    1200	     5.385
  61.000	        19	    1200	     4.359
  61.020	        13	    1200	     3.606
  61.040	        23	    1200	     4.796
  61.060	        21	    1200	     4.583
  61.080	        26	    1200	     5.099
  61.100	        17	    1200	     4.123
  61.120	        23	    1200	     4.796
  61.140	        17	    1200	     4.123
  61.160	        18	    1200	     4.243
  61.180	        26	    1200	     5.099
  61.200	        20	    1200	     4.472
  61.220	        17	    1200	     4.123
  61.240	        18	    1200	     4.243
  61.260	        22	    1200	     4.690
  61.280	        15	    1200	     3.873
  61.300	        17	    1200	     4.123
  61.320	        21	    1200	     4.583
  61.340	        18	    1200	     4.243
  61.360	        23	    1200	     4.796
  61.380	        18	    1200	     4.243
  61.400	        17	    1200	     4.123
  61.420	        19	    1200	     4.359
  61.440	        13	    1200	     3.606
  61.460	        24	    1200	     4.899
  61.480	        21	    1200	     4.583
  61.500	        15	    1200	     3.873
  61.520	        30	    1200	     5.477
  61.540	        20	    1200	     4.472
  61.560	        21	    1200	     4.583
  61.580	        19	    1200	     4.359
  61.600	        28	    1200	     5.292
  61.620	        21	    1200	     4.583
  61.640	        15	    1200	     3.873
  61.660	        15	    1200	     3.873
  61.680	        24	    1200	     4.899
  61.700	        17	    1200	     4.123
  61.720	        18	    1200	     4.243
  61.740	        19	    1200	     4.359
  61.760	        19	    1200	     4.359
  61.780	        23	    1200	     4.796
  61.800	        20	    1200	     4.472
  61.820	        15	    1200	     3.873
  61.840	        26	    1200	     5.099
  61.860	        17	    1200	     4.123
  61.880	        17	    1200	     4.123
  61.900	        20	    1200	     4.472
  61.920	        24	    1200	     4.899
  61.940	        22	    1200	     4.690
  61.960	        17	    1200	     4.123
  61.980	        15	    1200	     3.873
  62.000	        19	    1200	     4.359
  62.020	        17	    1200	     4.123
  62.040	        13	    1200	     3.606
  62.060	        15	    1200	     3.873
  62.080	        21	    1200	     4.583
  62.100	        19	    1200	     4.359
  62.120	        27	    1200	     5.196
  62.140	        15	    1200	     3.873
  62.160	        23	    1200	     4.796
  62.180	        18	    1200	     4.243
  62.200	        21	    1200	     4.583
  62.220	        19	    1200	     4.359
  62.240	        17	    1200	     4.123
  62.260	        18	    1200	     4.243
  62.280	        17	    1200	     4.123
  62.300	        18	    1200	     4.243
  62.320	        17	    1200	     4.123
  62.340	        11	    1200	     3.317
  62.360	        26	    1200	     5.099
  62.380	        23	    1200	     4.796
  62.400	        13	    1200	     3.606
  62.420	        18	    1200	     4.243
  62.440	        16	    1200	     4.000
  62.460	        20	    1200	     4.472
  62.480	        17	    1200	     4.123
  62.500	        15	    1200	     3.873
  62.520	        16	    1200	     4.000
  62.540	        19	    1200	     4.359
  62.560	        11	    1200	     3.317
  62.580	        18	    1200	     4.243
  62.600	        21	    1200	     4.583
  62.620	        23	    1200	     4.796
  62.640	        28	    1200	     5.292
  62.660	        14	    1200	     3.742
  62.680	        23	    1200	     4.796
  62.700	        22	    1200	     4.690
  62.720	        19	    1200	     4.359
  62.740	        23	    1200	     4.796
  62.760	        19	    1200	     4.359
  62.780	        21	    1200	     4.583
  62.800	        18	    1200	     4.243
  62.820	        17	    1200	     4.123
  62.840	        18	    1200	     4.243
  62.860	        15	    1200	     3.873
  62.880	        22	    1200	     4.690
  62.900	        27	    1200	     5.196
  62.920	        15	    1200	     3.873
  62.940	        19	    1200	     4.359
  62.960	        16	    1200	     4.000
  62.980	        25	    1200	     5.000
  63.000	        25	    1200	     5.000
  63.020	        16	    1200	     4.000
  63.040	        25	    1200	     5.000
  63.060	        23	    1200	     4.796
  63.080	        18	    1200	     4.243
  63.100	        19	    1200	     4.359
  63.120	        17	    1200	     4.123
  63.140	        18	    1200	     4.243
  63.160	        23	    1200	     4.796
  63.180	        16	    1200	     4.000
  63.200	        20	    1200	     4.472
  63.220	        29	    1200	     5.385
  63.240	        25	    1200	     5.000
  63.260	        20	    1200	     4.472
  63.280	        16	    1200	     4.000
  63.300	        17	    1200	     4.123
  63.320	        21	    1200	     4.583
  63.340	        15	    1200	     3.873
  63.360	        19	    1200	     4.359
  63.380	        19	    1200	     4.359
  63.400	        23	    1200	     4.796
  63.420	        21	    1200	     4.583
  63.440	        23	    1200	     4.796
  63.460	        20	    1200	     4.472
  63.480	        16	    1200	     4.000
  63.500	        17	    1200	     4.123
  63.520	        17	    1200	     4.123
  63.540	        16	    1200	     4.000
  63.560	        13	    1200	     3.606
  63.580	        28	    1200	     5.292
  63.600	        17	    1200	     4.123
  63.620	        27	    1200	     5.196
  63.640	        20	    1200	     4.472
  63.660	        26	    1200	     5.099
  63.680	        23	    1200	     4.796
  63.700	        24	    1200	     4.899
  63.720	        28	    1200	     5.292
  63.740	        32	    1200	     5.657
  63.760	        26	    1200	     5.099
  63.780	        14	    1200	     3.742
  63.800	        20	    1200	     4.472
  63.820	        30	    1200	     5.477
  63.840	        21	    1200	     4.583
  63.860	        29	    1200	     5.385
  63.880	        28	    1200	     5.292
  63.900	        26	    1200	     5.099
  63.920	        20	    1200	     4.472
  63.940	        13	    1200	     3.606
  63.960	        24	    1200	     4.899
  63.980	        24	    1200	     4.899
  64.000	        22	    1200	     4.690
  64.020	        20	    1200	     4.472
  64.040	        20	    1200	     4.472
  64.060	        27	    1200	     5.196
  64.080	        26	    1200	     5.099
  64.100	        19	    1200	     4.359
  64.120	        24	    1200	     4.899
  64.140	        33	    1200	     5.745
  64.160	        23	    1200	     4.796
  64.180	        21	    1200	     4.583
  64.200	        31	    1200	     5.568
  64.220	        24	    1200	     4.899
  64.240	        25	    1200	     5.000
  64.260	        21	    1200	     4.583
  64.280	        29	    1200	     5.385
  64.300	        20	    1200	     4.472
  64.320	        26	    1200	     5.099
  64.340	        31	    1200	     5.568
  64.360	        20	    1200	     4.472
  64.380	        29	    1200	     5.385
  64.400	        20	    1200	     4.472
  64.420	        24	    1200	     4.899
  64.440	        34	    1200	     5.831
  64.460	        24	    1200	     4.899
  64.480	        22	    1200	     4.690
  64.500	        30	    1200	     5.477
  64.520	        22	    1200	     4.690
  64.540	        23	    1200	     4.796
  64.560	        24	    1200	     4.899
  64.580	        36	    1200	     6.000
  64.600	        29	    1200	     5.385
  64.620	        23	    1200	     4.796
  64.640	        30	    1200	     5.477
  64.660	        18	    1200	     4.243
  64.680	        17	    1200	     4.123
  64.700	        18	    1200	     4.243
  64.720	        26	    1200	     5.099
  64.740	        30	    1200	     5.477
  64.760	        19	    1200	     4.359
  64.780	        32	    1200	     5.657
  64.800	        18	    1200	     4.243
  64.820	        26	    1200	     5.099
  64.840	        16	    1200	     4.000
  64.860	        27	    1200	     5.196
  64.880	        24	    1200	     4.899
  64.900	        27	    1200	     5.196
  64.920	        27	    1200	     5.196
  64.940	        26	    1200	     5.099
  64.960	        24	    1200	     4.899
  64.980	        25	    1200	     5.000
  65.000	        27	    1200	     5.196
  65.020	        34	    1200	     5.831
  65.040	        31	    1200	     5.568
  65.060	        20	    1200	     4.472
  65.080	        22	    1200	     4.690
  65.100	        26	    1200	     5.099
  65.120	        28	    1200	     5.292
  65.140	        31	    1200	     5.568
  65.160	        14	    1200	     3.742
  65.180	        26	    1200	     5.099
  65.200	        22	    1200	     4.690
  65.220	        19	    1200	     4.359
  65.240	        26	    1200	     5.099
  65.260	        27	    1200	     5.196
  65.280	        21	    1200	     4.583
  65.300	        21	    1200	     4.583
  65.320	        16	    1200	     4.000
  65.340	        35	    1200	     5.916
  65.360	        16	    1200	     4.000
  65.380	        32	    1200	     5.657
  65.400	        17	    1200	     4.123
  65.420	        35	    1200	     5.916
  65.440	        20	    1200	     4.472
  65.460	        21	    1200	     4.583
  65.480	        31	    1200	     5.568
  65.500	        26	    1200	     5.099
  65.520	        18	    1200	     4.243
  65.540	        17	    1200	     4.123
  65.560	        26	    1200	     5.099
  65.580	        25	    1200	     5.000
  65.600	        20	    1200	     4.472
  65.620	        25	    1200	     5.000
  65.640	        31	    1200	     5.568
  65.660	        24	    1200	     4.899
  65.680	        26	    1200	     5.099
  65.700	        26	    1200	     5.099
  65.720	        28	    1200	     5.292
  65.740	        32	    1200	     5.657
  65.760	        31	    1200	     5.568
  65.780	        31	    1200	     5.568
  65.800	        34	    1200	     5.831
  65.820	        21	    1200	     4.583
  65.840	        37	    1200	     6.083
  65.860	        30	    1200	     5.477
  65.880	        28	    1200	     5.292
  65.900	        43	    1200	     6.557
  65.920	        40	    1200	     6.325
  65.940	        34	    1200	     5.831
  65.960	        31	    1200	     5.568
  65.980	        27	    1200	     5.196
  66.000	        25	    1200	     5.000
  66.020	        35	    1200	     5.916
  66.040	        24	    1200	     4.899
  66.060	        39	    1200	     6.245
  66.080	        44	    1200	     6.633
  66.100	        33	    1200	     5.745
  66.120	        42	    1200	     6.481
  66.140	        32	    1200	     5.657
  66.160	        40	    1200	     6.325
  66.180	        43	    1200	     6.557
  66.200	        48	    1200	     6.928
  66.220	        49	    1200	     7.000
  66.240	        41	    1200	     6.403
  66.260	        66	    1200	     8.124
  66.280	        59	    1200	     7.681
  66.300	        56	    1200	     7.483
  66.320	        71	    1200	     8.426
  66.340	        44	    1200	     6.633
  66.360	        62	    1200	     7.874
  66.380	        53	    1200	     7.280
  66.400	        55	    1200	     7.416
  66.420	        71	    1200	     8.426
  66.440	        66	    1200	     8.124
  66.460	        47	    1200	     6.856
  66.480	        53	    1200	     7.280
  66.500	        46	    1200	     6.782
  66.520	        71	    1200	     8.426
  66.540	        42	    1200	     6.481
  66.560	        48	    1200	     6.928
  66.580	        48	    1200	     6.928
  66.600	        48	    1200	     6.928
  66.620	        45	    1200	     6.708
  66.640	        34	    1200	     5.831
  66.660	        47	    1200	     6.856
  66.680	        49	    1200	     7.000
  66.700	        45	    1200	     6.708
  66.720	        54	    1200	     7.348
  66.740	        31	    1200	     5.568
  66.760	        38	    1200	     6.164
  66.780	        48	    1200	     6.928
  66.800	        38	    1200	     6.164
  66.820	        29	    1200	     5.385
  66.840	        40	    1200	     6.325
  66.860	        36	    1200	     6.000
  66.880	        33	    1200	     5.745
  66.900	        43	    1200	     6.557
  66.920	        26	    1200	     5.099
  66.940	        33	    1200	     5.745
  66.960	        26	    1200	     5.099
  66.980	        43	    1200	     6.557
  67.000	        40	    1200	     6.325
  67.020	        36	    1200	     6.000
  67.040	        42	    1200	     6.481
  67.060	        45	    1200	     6.708
  67.080	        38	    1200	     6.164
  67.100	        51	    1200	     7.141
  67.120	        44	    1200	     6.633
  67.140	        58	    1200	     7.616
  67.160	        48	    1200	     6.928
  67.180	        60	    1200	     7.746
  67.200	        36	    1200	     6.000
  67.220	        62	    1200	     7.874
  67.240	        60	    1200	     7.746
  67.260	        68	    1200	     8.246
  67.280	        67	    1200	     8.185
  67.300	        90	    1200	     9.487
  67.320	       129	    1200	    11.358
  67.340	        97	    1200	     9.849
  67.360	       107	    1200	    10.344
  67.380	       111	    1200	    10.536
  67.400	       119	    1200	    10.909
  67.420	       181	    1200	    13.454
  67.440	       177	    1200	    13.304
  67.460	       195	    1200	    13.964
  67.480	       222	    1200	    14.900
  67.500	       272	    1200	    16.492
  67.520	       257	    1200	    16.031
  67.540	       313	    1200	    17.692
  67.560	       349	    1200	    18.682
  67.580	       388	    1200	    19.698
  67.600	       397	    1200	    19.925
  67.620	       423	    1200	    20.567
  67.640	       418	    1200	    20.445
  67.660	       419	    1200	    20.469
  67.680	       416	    1200	    20.396
  67.700	       374	    1200	    19.339
  67.720	       393	    1200	    19.824
  67.740	       390	    1200	    19.748
  67.760	       396	    1200	    19.900
  67.780	       413	    1200	    20.322
  67.800	       387	    1200	    19.672
  67.820	       377	    1200	    19.416
  67.840	       312	    1200	    17.664
  67.860	       285	    1200	    16.882
  67.880	       285	    1200	    16.882
  67.900	       278	    1200	    16.673
  67.920	       230	    1200	    15.166
  67.940	       212	    1200	    14.560
  67.960	       185	    1200	    13.601
  67.980	       169	    1200	    13.000
  68.000	       125	    1200	    11.180
  68.020	       141	    1200	    11.874
  68.040	       132	    1200	    11.489
  68.060	       125	    1200	    11.180
  68.080	       106	    1200	    10.296
  68.100	        86	    1200	     9.274
  68.120	        91	    1200	     9.539
  68.140	        77	    1200	     8.775
  68.160	        71	    1200	     8.426
  68.180	        63	    1200	     7.937
  68.200	        69	    1200	     8.307
  68.220	        61	    1200	     7.810
  68.240	        49	    1200	     7.000
  68.260	        54	    1200	     7.348
  68.280	        50	    1200	     7.071
  68.300	        42	    1200	     6.481
  68.320	        42	    1200	     6.481
  68.340	        38	    1200	     6.164
  68.360	        41	    1200	     6.403
  68.380	        46	    1200	     6.782
  68.400	        32	    1200	     5.657
  68.420	        29	    1200	     5.385
  68.440	        45	    1200	     6.708
  68.460	        31	    1200	     5.568
  68.480	        29	    1200	     5.385
  68.500	        24	    1200	     4.899
  68.520	        30	    1200	     5.477
  68.540	        31	    1200	     5.568
  68.560	        30	    1200	     5.477
  68.580	        25	    1200	     5.000
  68.600	        33	    1200	     5.745
  68.620	        30	    1200	     5.477
  68.640	        21	    1200	     4.583
  68.660	        33	    1200	     5.745
  68.680	        23	    1200	     4.796
  68.700	        28	    1200	     5.292
  68.720	        26	    1200	     5.099
  68.740	        22	    1200	     4.690
  68.760	        27	    1200	     5.196
  68.780	        25	    1200	     5.000
  68.800	        24	    1200	     4.899
  68.820	        29	    1200	     5.385
  68.840	        23	    1200	     4.796
  68.860	        27	    1200	     5.196
  68.880	        25	    1200	     5.000
  68.900	        25	    1200	     5.000
  68.920	        23	    1200	     4.796
  68.940	        19	    1200	     4.359
  68.960	        19	    1200	     4.359
  68.980	        24	    1200	     4.899
  69.000	        22	    1200	     4.690
  69.020	        26	    1200	     5.099
  69.040	        10	    1200	     3.162
  69.060	        18	    1200	     4.243
  69.080	        25	    1200	     5.000
  69.100	        20	    1200	     4.472
  69.120	        27	    1200	     5.196
  69.140	        17	    1200	     4.123
  69.160	        13	    1200	     3.606
  69.180	        21	    1200	     4.583
  69.200	        11	    1200	     3.317
  69.220	        25	    1200	     5.000
  69.240	        27	    1200	     5.196
  69.260	        21	    1200	     4.583
  69.280	        30	    1200	     5.477
  69.300	        26	    1200	     5.099
  69.320	        16	    1200	     4.000
  69.340	        19	    1200	     4.359
  69.360	        22	    1200	     4.690
  69.380	        18	    1200	     4.243
  69.400	        27	    1200	     5.196
  69.420	        17	    1200	     4.123
  69.440	        24	    1200	     4.899
  69.460	        22	    1200	     4.690
  69.480	        24	    1200	     4.899
  69.500	        15	    1200	     3.873
  69.520	        28	    1200	     5.292
  69.540	        19	    1200	     4.359
  69.560	        24	    1200	     4.899
  69.580	        17	    1200	     4.123
  69.600	        21	    1200	     4.583
  69.620	        23	    1200	     4.796
  69.640	        16	    1200	     4.000
  69.660	        19	    1200	     4.359
  69.680	        17	    1200	     4.123
  69.700	        19	    1200	     4.359
  69.720	        12	    1200	     3.464
  69.740	        16	    1200	     4.000
  69.760	        16	    1200	     4.000
  69.780	        27	    1200	     5.196
  69.800	        13	    1200	     3.606
  69.820	        19	    1200	     4.359
  69.840	        25	    1200	     5.000
  69.860	        27	    1200	     5.196
  69.880	        18	    1200	     4.243
  69.900	        25	    1200	     5.000
  69.920	        17	    1200	     4.123
  69.940	        17	    1200	     4.123
  69.960	         8	    1200	     2.828
  69.980	        19	    1200	     4.359
  70.000	        13	    1200	     3.606
  70.020	        11	    1200	     3.317
  70.040	        23	    1200	     4.796
  70.060	        11	    1200	     3.317
  70.080	        14	    1200	     3.742
  70.100	        22	    1200	     4.690
  70.120	        26	    1200	     5.099
  70.140	        16	    1200	     4.000
  70.160	        13	    1200	     3.606
  70.180	        10	    1200	     3.162
  70.200	        18	    1200	     4.243
  70.220	        18	    1200	     4.243
  70.240	        24	    1200	     4.899
  70.260	        19	    1200	     4.359
  70.280	        14	    1200	     3.742
  70.300	        13	    1200	     3.606
  70.320	        19	    1200	     4.359
  70.340	        16	    1200	     4.000
  70.360	        17	    1200	     4.123
  70.380	        12	    1200	     3.464
  70.400	        21	    1200	     4.583
  70.420	        15	    1200	     3.873
  70.440	        14	    1200	     3.742
  70.460	        17	    1200	     4.123
  70.480	        15	    1200	     3.873
  70.500	        15	    1200	     3.873
  70.520	        14	    1200	     3.742
  70.540	        18	    1200	     4.243
  70.560	        13	    1200	     3.606
  70.580	        16	    1200	     4.000
  70.600	        19	    1200	     4.359
  70.620	        17	    1200	     4.123
  70.640	        20	    1200	     4.472
  70.660	        12	    1200	     3.464
  70.680	        14	    1200	     3.742
  70.700	         7	    1200	     2.646
  70.720	        15	    1200	     3.873
  70.740	        16	    1200	     4.000
  70.760	        15	    1200	     3.873
  70.780	        18	    1200	     4.243
  70.800	        17	    1200	     4.123
  70.820	        14	    1200	     3.742
  70.840	        14	    1200	     3.742
  70.860	        19	    1200	     4.359
  70.880	        15	    1200	     3.873
  70.900	        22	    1200	     4.690
  70.920	        18	    1200	     4.243
  70.940	        19	    1200	     4.359
  70.960	        23	    1200	     4.796
  70.980	        18	    1200	     4.243
  71.000	        26	    1200	     5.099
  71.020	        21	    1200	     4.583
  71.040	        15	    1200	     3.873
  71.060	        13	    1200	     3.606
  71.080	        13	    1200	     3.606
  71.100	        15	    1200	     3.873
  71.120	        22	    1200	     4.690
  71.140	        16	    1200	     4.000
  71.160	        22	    1200	     4.690
  71.180	        17	    1200	     4.123
  71.200	        14	    1200	     3.742
  71.220	        17	    1200	     4.123
  71.240	        18	    1200	     4.243
  71.260	        13	    1200	     3.606
  71.280	        16	    1200	     4.000
  71.300	        21	    1200	     4.583
  71.320	        16	    1200	     4.000
  71.340	        23	    1200	     4.796
  71.360	        13	    1200	     3.606
  71.380	        18	    1200	     4.243
  71.400	        19	    1200	     4.359
  71.420	        11	    1200	     3.317
  71.440	        15	    1200	     3.873
  71.460	        16	    1200	     4.000
  71.480	        19	    1200	     4.359
  71.500	        18	    1200	     4.243
  71.520	        11	    1200	     3.317
  71.540	        14	    1200	     3.742
  71.560	        18	    1200	     4.243
  71.580	        16	    1200	     4.000
  71.600	        17	    1200	     4.123
  71.620	        23	    1200	     4.796
  71.640	        21	    1200	     4.583
  71.660	        24	    1200	     4.899
  71.680	        23	    1200	     4.796
  71.700	        17	    1200	     4.123
  71.720	        14	    1200	     3.742
  71.740	        20	    1200	     4.472
  71.760	        18	    1200	     4.243
  71.780	        17	    1200	     4.123
  71.800	        16	    1200	     4.000
  71.820	        17	    1200	     4.123
  71.840	        24	    1200	     4.899
  71.860	        22	    1200	     4.690
  71.880	        24	    1200	     4.899
  71.900	        24	    1200	     4.899
  71.920	        25	    1200	     5.000
  71.940	        20	    1200	     4.472
  71.960	        25	    1200	     5.000
  71.980	        21	    1200	     4.583
  72.000	        20	    1200	     4.472
  72.020	        21	    1200	     4.583
  72.040	        25	    1200	     5.000
  72.060	        21	    1200	     4.583
  72.080	        17	    1200	     4.123
  72.100	        18	    1200	     4.243
  72.120	        24	    1200	     4.899
  72.140	        28	    1200	     5.292
  72.160	        34	    1200	     5.831
  72.180	        28	    1200	     5.292
  72.200	        27	    1200	     5.196
  72.220	        45	    1200	     6.708
  72.240	        27	    1200	     5.196
  72.260	        32	    1200	     5.657
  72.280	        23	    1200	     4.796
  72.300	        34	    1200	     5.831
  72.320	        42	    1200	     6.481
  72.340	        31	    1200	     5.568
  72.360	        46	    1200	     6.782
  72.380	        38	    1200	     6.164
  72.400	        32	    1200	     5.657
  72.420	        43	    1200	     6.557
  72.440	        48	    1200	     6.928
  72.460	        39	    1200	     6.245
  72.480	        27	    1200	     5.196
  72.500	        35	    1200	     5.916
  72.520	        32	    1200	     5.657
  72.540	        46	    1200	     6.782
  72.560	        28	    1200	     5.292
  72.580	        38	    1200	     6.164
  72.600	        27	    1200	     5.196
  72.620	        39	    1200	     6.245
  72.640	        32	    1200	     5.657
  72.660	        30	    1200	     5.477
  72.680	        34	    1200	     5.831
  72.700	        36	    1200	     6.000
  72.720	        32	    1200	     5.657
  72.740	        20	    1200	     4.472
  72.760	        23	    1200	     4.796
  72.780	        18	    1200	     4.243
  72.800	        24	    1200	     4.899
  72.820	        19	    1200	     4.359
  72.840	        22	    1200	     4.690
  72.860	        27	    1200	     5.196
  72.880	        22	    1200	     4.690
  72.900	        27	    1200	     5.196
  72.920	        22	    1200	     4.690
  72.940	        26	    1200	     5.099
  72.960	        20	    1200	     4.472
  72.980	        27	    1200	     5.196
  73.000	        23	    1200	     4.796
  73.020	        16	    1200	     4.000
  73.040	        29	    1200	     5.385
  73.060	        28	    1200	     5.292
  73.080	        15	    1200	     3.873
  73.100	        14	    1200	     3.742
  73.120	        21	    1200	     4.583
  73.140	        21	    1200	     4.583
  73.160	        20	    1200	     4.472
  73.180	        27	    1200	     5.196
  73.200	        18	    1200	     4.243
  73.220	        18	    1200	     4.243
  73.240	        13	    1200	     3.606
  73.260	        20	    1200	     4.472
  73.280	        18	    1200	     4.243
  73.300	        21	    1200	     4.583
  73.320	        33	    1200	     5.745
  73.340	        31	    1200	     5.568
  73.360	        31	    1200	     5.568
  73.380	        17	    1200	     4.123
  73.400	        21	    1200	     4.583
  73.420	        24	    1200	     4.899
  73.440	        15	    1200	     3.873
  73.460	        27	    1200	     5.196
  73.480	        18	    1200	     4.243
  73.500	        16	    1200	     4.000
  73.520	        22	    1200	     4.690
  73.540	        26	    1200	     5.099
  73.560	        25	    1200	     5.000
  73.580	        26	    1200	     5.099
  73.600	        35	    1200	     5.916
  73.620	        20	    1200	     4.472
  73.640	        27	    1200	     5.196
  73.660	        25	    1200	     5.000
  73.680	        14	    1200	     3.742
  73.700	        38	    1200	     6.164
  73.720	        28	    1200	     5.292
  73.740	        18	    1200	     4.243
  73.760	        27	    1200	     5.196
  73.780	        28	    1200	     5.292
  73.800	        22	    1200	     4.690
  73.820	        38	    1200	     6.164
  73.840	        25	    1200	     5.000
  73.860	        30	    1200	     5.477
  73.880	        26	    1200	     5.099
  73.900	        26	    1200	     5.099
  73.920	        25	    1200	     5.000
  73.940	        28	    1200	     5.292
  73.960	        31	    1200	     5.568
  73.980	        21	    1200	     4.583
  74.000	        35	    1200	     5.916
  74.020	        40	    1200	     6.325
  74.040	        25	    1200	     5.000
  74.060	        29	    1200	     5.385
  74.080	        37	    1200	     6.083
  74.100	        16	    1200	     4.000
  74.120	        26	    1200	     5.099
  74.140	        22	    1200	     4.690
  74.160	        29	    1200	     5.385
  74.180	        27	    1200	     5.196
  74.200	        30	    1200	     5.477
  74.220	        26	    1200	     5.099
  74.240	        31	    1200	     5.568
  74.260	        20	    1200	     4.472
  74.280	        28	    1200	     5.292
  74.300	        28	    1200	     5.292
  74.320	        15	    1200	     3.873
  74.340	        17	    1200	     4.123
  74.360	        25	    1200	     5.000
  74.380	        30	    1200	     5.477
  74.400	        25	    1200	     5.000
  74.420	        24	    1200	     4.899
  74.440	        26	    1200	     5.099
  74.460	        14	    1200	     3.742
  74.480	        23	    1200	     4.796
  74.500	        28	    1200	     5.292
  74.520	        28	    1200	     5.292
  74.540	        15	    1200	     3.873
  74.560	        26	    1200	     5.099
  74.580	        23	    1200	     4.796
  74.600	        25	    1200	     5.000
  74.620	        17	    1200	     4.123
  74.640	        18	    1200	     4.243
  74.660	        25	    1200	     5.000
  74.680	        24	    1200	     4.899
  74.700	        26	    1200	     5.099
  74.720	        17	    1200	     4.123
  74.740	        18	    1200	     4.243
  74.760	        23	    1200	     4.796
  74.780	        19	    1200	     4.359
  74.800	        21	    1200	     4.583
  74.820	        26	    1200	     5.099
  74.840	        12	    1200	     3.464
  74.860	        22	    1200	     4.690
  74.880	        20	    1200	     4.472
  74.900	        13	    1200	     3.606
  74.920	        21	    1200	     4.583
  74.940	        21	    1200	     4.583
  74.960	        25	    1200	     5.000
  74.980	        13	    1200	     3.606
  75.000	        21	    1200	     4.583
  75.020	        21	    1200	     4.583
  75.040	        26	    1200	     5.099
  75.060	        21	    1200	     4.583
  75.080	        23	    1200	     4.796
  75.100	        16	    1200	     4.000
  75.120	        23	    1200	     4.796
  75.140	        19	    1200	     4.359
  75.160	        20	    1200	     4.472
  75.180	        19	    1200	     4.359
  75.200	        24	    1200	     4.899
  75.220	        23	    1200	     4.796
  75.240	        14	    1200	     3.742
  75.260	        17	    1200	     4.123
  75.280	        21	    1200	     4.583
  75.300	        12	    1200	     3.464
  75.320	        18	    1200	     4.243
  75.340	        19	    1200	     4.359
  75.360	        18	    1200	     4.243
  75.380	        19	    1200	     4.359
  75.400	        20	    1200	     4.472
  75.420	        15	    1200	     3.873
  75.440	        18	    1200	     4.243
  75.460	        23	    1200	     4.796
  75.480	        21	    1200	     4.583
  75.500	        13	    1200	     3.606
  75.520	        19	    1200	     4.359
  75.540	        24	    1200	     4.899
  75.560	        21	    1200	     4.583
  75.580	        21	    1200	     4.583
  75.600	        18	    1200	     4.243
  75.620	        25	    1200	     5.000
  75.640	        27	    1200	     5.196
  75.660	        22	    1200	     4.690
  75.680	        19	    1200	     4.359
  75.700	        21	    1200	     4.583
  75.720	        22	    1200	     4.690
  75.740	        20	    1200	     4.472
  75.760	        23	    1200	     4.796
  75.780	        33	    1200	     5.745
  75.800	        28	    1200	     5.292
  75.820	        16	    1200	     4.000
  75.840	        16	    1200	     4.000
  75.860	        24	    1200	     4.899
  75.880	        25	    1200	     5.000
  75.900	        18	    1200	     4.243
  75.920	        28	    1200	     5.292
  75.940	        28	    1200	     5.292
  75.960	        24	    1200	     4.899
  75.980	        20	    1200	     4.472
  76.000	        22	    1200	     4.690
  76.020	        27	    1200	     5.196
  76.040	        24	    1200	     4.899
  76.060	        37	    1200	     6.083
  76.080	        34	    1200	     5.831
  76.100	        34	    1200	     5.831
  76.120	        27	    1200	     5.196
  76.140	        27	    1200	     5.196
  76.160	        33	    1200	     5.745
  76.180	        21	    1200	     4.583
  76.200	        19	    1200	     4.359
  76.220	        24	    1200	     4.899
  76.240	        21	    1200	     4.583
  76.260	        27	    1200	     5.196
  76.280	        25	    1200	     5.000
  76.300	        29	    1200	     5.385
  76.320	        41	    1200	     6.403
  76.340	        32	    1200	     5.657
  76.360	        35	    1200	     5.916
  76.380	        28	    1200	     5.292
  76.400	        51	    1200	     7.141
  76.420	        41	    1200	     6.403
  76.440	        46	    1200	     6.782
  76.460	        35	    1200	     5.916
  76.480	        40	    1200	     6.325
  76.500	        39	    1200	     6.245
  76.520	        38	    1200	     6.164
  76.540	        55	    1200	     7.416
  76.560	        56	    1200	     7.483
  76.580	        58	    1200	     7.616
  76.600	        58	    1200	     7.616
  76.620	        58	    1200	     7.616
  76.640	        93	    1200	     9.644
  76.660	        92	    1200	     9.592
  76.680	        87	    1200	     9.327
  76.700	       104	    1200	    10.198
  76.720	        99	    1200	     9.950
  76.740	       124	    1200	    11.136
  76.760	       130	    1200	    11.402
  76.780	       165	    1200	    12.845
  76.800	       183	    1200	    13.528
  76.820	       168	    1200	    12.961
  76.840	       203	    1200	    14.248
  76.860	       235	    1200	    15.330
  76.880	       208	    1200	    14.422
  76.900	       269	    1200	    16.401
  76.920	       263	    1200	    16.217
  76.940	       260	    1200	    16.125
  76.960	       286	    1200	    16.912
  76.980	       293	    1200	    17.117
  77.000	       292	    1200	    17.088
  77.020	       320	    1200	    17.889
  77.040	       288	    1200	    16.971
  77.060	       299	    1200	    17.292
  77.080	       298	    1200	    17.263
  77.100	       311	    1200	    17.635
  77.120	       275	    1200	    16.583
  77.140	       279	    1200	    16.703
  77.160	       253	    1200	    15.906
  77.180	       275	    1200	    16.583
  77.200	       258	    1200	    16.062
  77.220	       227	    1200	    15.067
  77.240	       242	    1200	    15.556
  77.260	       213	    1200	    14.595
  77.280	       211	    1200	    14.526
  77.300	       188	    1200	    13.711
  77.320	       182	    1200	    13.491
  77.340	       165	    1200	    12.845
  77.360	       133	    1200	    11.533
  77.380	       131	    1200	    11.446
  77.400	       107	    1200	    10.344
  77.420	       135	    1200	    11.619
  77.440	       102	    1200	    10.100
  77.460	       117	    1200	    10.817
  77.480	        67	    1200	     8.185
  77.500	        83	    1200	     9.110
  77.520	        72	    1200	     8.485
  77.540	        66	    1200	     8.124
  77.560	        59	    1200	     7.681
  77.580	        53	    1200	     7.280
  77.600	        61	    1200	     7.810
  77.620	        45	    1200	     6.708
  77.640	        49	    1200	     7.000
  77.660	        44	    1200	     6.633
  77.680	        40	    1200	     6.325
  77.700	        40	    1200	     6.325
  77.720	        32	    1200	     5.657
  77.740	        41	    1200	     6.403
  77.760	        35	    1200	     5.916
  77.780	        31	    1200	     5.568
  77.800	        37	    1200	     6.083
  77.820	        31	    1200	     5.568
  77.840	        35	    1200	     5.916
  77.860	        40	    1200	     6.325
  77.880	        30	    1200	     5.477
  77.900	        36	    1200	     6.000
  77.920	        23	    1200	     4.796
  77.940	        41	    1200	     6.403
  77.960	        25	    1200	     5.000
  77.980	        24	    1200	     4.899
  78.000	        29	    1200	     5.385
  78.020	        14	    1200	     3.742
  78.040	        21	    1200	     4.583
  78.060	        24	    1200	     4.899
  78.080	        40	    1200	     6.325
  78.100	        25	    1200	     5.000
  78.120	        34	    1200	     5.831
  78.140	        24	    1200	     4.899
  78.160	        29	    1200	     5.385
  78.180	        29	    1200	     5.385
  78.200	        29	    1200	     5.385
  78.220	        14	    1200	     3.742
  78.240	        32	    1200	     5.657
  78.260	        24	    1200	     4.899
  78.280	        25	    1200	     5.000
  78.300	        22	    1200	     4.690
  78.320	        29	    1200	     5.385
  78.340	        29	    1200	     5.385
  78.360	        23	    1200	     4.796
  78.380	        30	    1200	     5.477
  78.400	        11	    1200	     3.317
  78.420	        24	    1200	     4.899
  78.440	        20	    1200	     4.472
  78.460	        21	    1200	     4.583
  78.480	        22	    1200	     4.690
  78.500	        32	    1200	     5.657
  78.520	        22	    1200	     4.690
  78.540	        30	    1200	     5.477
  78.560	        25	    1200	     5.000
  78.580	        21	    1200	     4.583
  78.600	        21	    1200	     4.583
  78.620	        22	    1200	     4.690
  78.640	        15	    1200	     3.873
  78.660	        18	    1200	     4.243
  78.680	        24	    1200	     4.899
  78.700	        17	    1200	     4.123
  78.720	        20	    1200	     4.472
  78.740	        25	    1200	     5.000
  78.760	        23	    1200	     4.796
  78.780	        13	    1200	     3.606
  78.800	        18	    1200	     4.243
  78.820	        21	    1200	     4.583
  78.840	        21	    1200	     4.583
  78.860	        19	    1200	     4.359
  78.880	        21	    1200	     4.583
  78.900	        20	    1200	     4.472
  78.920	        24	    1200	     4.899
  78.940	        29	    1200	     5.385
  78.960	        15	    1200	     3.873
  78.980	        22	    1200	     4.690
  79.000	        17	    1200	     4.123
  79.020	        22	    1200	     4.690
  79.040	        24	    1200	     4.899
  79.060	        18	    1200	     4.243
  79.080	        20	    1200	     4.472
  79.100	        15	    1200	     3.873
  79.120	        19	    1200	     4.359
  79.140	        13	    1200	     3.606
  79.160	        15	    1200	     3.873
  79.180	        17	    1200	     4.123
  79.200	        12	    1200	     3.464
  79.220	        11	    1200	     3.317
  79.240	        30	    1200	     5.477
  79.260	        20	    1200	     4.472
  79.280	        24	    1200	     4.899
  79.300	        18	    1200	     4.243
  79.320	        20	    1200	     4.472
  79.340	        16	    1200	     4.000
  79.360	        21	    1200	     4.583
  79.380	        20	    1200	     4.472
  79.400	        22	    1200	     4.690
  79.420	        25	    1200	     5.000
  79.440	        17	    1200	     4.123
  79.460	        23	    1200	     4.796
  79.480	        17	    1200	     4.123
  79.500	        22	    1200	     4.690
  79.520	        12	    1200	     3.464
  79.540	        12	    1200	     3.464
  79.560	        14	    1200	     3.742
  79.580	        34	    1200	     5.831
  79.600	        20	    1200	     4.472
  79.620	         9	    1200	     3.000
  79.640	        21	    1200	     4.583
  79.660	        11	    1200	     3.317
  79.680	        20	    1200	     4.472
  79.700	        21	    1200	     4.583
  79.720	        13	    1200	     3.606
  79.740	        20	    1200	     4.472
  79.760	        14	    1200	     3.742
  79.780	        29	    1200	     5.385
  79.800	        18	    1200	     4.243
  79.820	        17	    1200	     4.123
  79.840	        25	    1200	     5.000
  79.860	        16	    1200	     4.000
  79.880	        21	    1200	     4.583
  79.900	        22	    1200	     4.690
  79.920	        20	    1200	     4.472
  79.940	        17	    1200	     4.123
  79.960	        13	    1200	     3.606
  79.980	        22	    1200	     4.690
  80.000	        23	    1200	     4.796
  80.020	        14	    1200	     3.742
  80.040	        19	    1200	     4.359
  80.060	        26	    1200	     5.099
  80.080	        18	    1200	     4.243
  80.100	        29	    1200	     5.385
  80.120	        18	    1200	     4.243
  80.140	        16	    1200	     4.000
  80.160	        23	    1200	     4.796
  80.180	        27	    1200	     5.196
  80.200	        21	    1200	     4.583
  80.220	        22	    1200	     4.690
  80.240	        24	    1200	     4.899
  80.260	        16	    1200	     4.000
  80.280	        19	    1200	     4.359
  80.300	        18	    1200	     4.243
  80.320	        19	    1200	     4.359
  80.340	        19	    1200	     4.359
  80.360	        20	    1200	     4.472
  80.380	        21	    1200	     4.583
  80.400	        16	    1200	     4.000
  80.420	        16	    1200	     4.000
  80.440	        22	    1200	     4.690
  80.460	        19	    1200	     4.359
  80.480	        13	    1200	     3.606
  80.500	        14	    1200	     3.742
  80.520	        21	    1200	     4.583
  80.540	        22	    1200	     4.690
  80.560	        23	    1200	     4.796
  80.580	        20	    1200	     4.472
  80.600	        22	    1200	     4.690
  80.620	        18	    1200	     4.243
  80.640	        30	    1200	     5.477
  80.660	        18	    1200	     4.243
  80.680	        22	    1200	     4.690
  80.700	        19	    1200	     4.359
  80.720	        26	    1200	     5.099
  80.740	        25	    1200	     5.000
  80.760	        18	    1200	     4.243
  80.780	        18	    1200	     4.243
  80.800	        17	    1200	     4.123
  80.820	        15	    1200	     3.873
  80.840	        20	    1200	     4.472
  80.860	        18	    1200	     4.243
  80.880	        18	    1200	     4.243
  80.900	        23	    1200	     4.796
  80.920	        19	    1200	     4.359
  80.940	        24	    1200	     4.899
  80.960	        24	    1200	     4.899
  80.980	        20	    1200	     4.472
  81.000	        23	    1200	     4.796
  81.020	        19	    1200	     4.359
  81.040	        27	    1200	     5.196
  81.060	        20	    1200	     4.472
  81.080	        29	    1200	     5.385
  81.100	        33	    1200	     5.745
  81.120	        20	    1200	     4.472
  81.140	        34	    1200	     5.831
  81.160	        29	    1200	     5.385
  81.180	        30	    1200	     5.477
  81.200	        38	    1200	     6.164
  81.220	        40	    1200	     6.325
  81.240	        39	    1200	     6.245
  81.260	        38	    1200	     6.164
  81.280	        43	    1200	     6.557
  81.300	        35	    1200	     5.916
  81.320	        44	    1200	     6.633
  81.340	        53	    1200	     7.280
  81.360	        51	    1200	     7.141
  81.380	        67	    1200	     8.185
  81.400	        59	    1200	     7.681
  81.420	        67	    1200	     8.185
  81.440	        72	    1200	     8.485
  81.460	        62	    1200	     7.874
  81.480	        78	    1200	     8.832
  81.500	        72	    1200	     8.485
  81.520	        82	    1200	     9.055
  81.540	        70	    1200	     8.367
  81.560	        71	    1200	     8.426
  81.580	        82	    1200	     9.055
  81.600	        71	    1200	     8.426
  81.620	        76	    1200	     8.718
  81.640	        85	    1200	     9.220
  81.660	        99	    1200	     9.950
  81.680	        94	    1200	     9.695
  81.700	        81	    1200	     9.000
  81.720	        86	    1200	     9.274
  81.740	        64	    1200	     8.000
  81.760	        69	    1200	     8.307
  81.780	        73	    1200	     8.544
  81.800	        63	    1200	     7.937
  81.820	        64	    1200	     8.000
  81.840	        46	    1200	     6.782
  81.860	        46	    1200	     6.782
  81.880	        62	    1200	     7.874
  81.900	        63	    1200	     7.937
  81.920	        49	    1200	     7.000
  81.940	        54	    1200	     7.348
  81.960	        48	    1200	     6.928
  81.980	        51	    1200	     7.141
  82.000	        48	    1200	     6.928
  82.020	        41	    1200	     6.403
  82.040	        41	    1200	     6.403
  82.060	        52	    1200	     7.211
  82.080	        37	    1200	     6.083
  82.100	        44	    1200	     6.633
  82.120	        47	    1200	     6.856
  82.140	        46	    1200	     6.782
  82.160	        42	    1200	     6.481
  82.180	        41	    1200	     6.403
  82.200	        49	    1200	     7.000
  82.220	        43	    1200	     6.557
  82.240	        38	    1200	     6.164
  82.260	        56	    1200	     7.483
  82.280	        47	    1200	     6.856
  82.300	        29	    1200	     5.385
  82.320	        38	    1200	     6.164
  82.340	        35	    1200	     5.916
  82.360	        34	    1200	     5.831
  82.380	        36	    1200	     6.000
  82.400	        55	    1200	     7.416
  82.420	        28	    1200	     5.292
  82.440	        35	    1200	     5.916
  82.460	        27	    1200	     5.196
  82.480	        46	    1200	     6.782
  82.500	        38	    1200	     6.164
  82.520	        35	    1200	     5.916
  82.540	        36	    1200	     6.000
  82.560	        31	    1200	     5.568
  82.580	        36	    1200	     6.000
  82.600	        41	    1200	     6.403
  82.620	        29	    1200	     5.385
  82.640	        33	    1200	     5.745
  82.660	        38	    1200	     6.164
  82.680	        38	    1200	     6.164
  82.700	        40	    1200	     6.325
  82.720	        27	    1200	     5.196
  82.740	        32	    1200	     5.657
  82.760	        29	    1200	     5.385
  82.780	        37	    1200	     6.083
  82.800	        42	    1200	     6.481
  82.820	        42	    1200	     6.481
  82.840	        29	    1200	     5.385
  82.860	        35	    1200	     5.916
  82.880	        27	    1200	     5.196
  82.900	        41	    1200	     6.403
  82.920	        37	    1200	     6.083
  82.940	        30	    1200	     5.477
  82.960	        24	    1200	     4.899
  82.980	        33	    1200	     5.745
  83.000	        34	    1200	     5.831
  83.020	        39	    1200	     6.245
  83.040	        29	    1200	     5.385
  83.060	        39	    1200	     6.245
  83.080	        42	    1200	     6.481
  83.100	        33	    1200	     5.745
  83.120	        34	    1200	     5.831
  83.140	        25	    1200	     5.000
  83.160	        26	    1200	     5.099
  83.180	        33	    1200	     5.745
  83.200	        30	    1200	     5.477
  83.220	        27	    1200	     5.196
  83.240	        30	    1200	     5.477
  83.260	        24	    1200	     4.899
  83.280	        29	    1200	     5.385
  83.300	        27	    1200	     5.196
  83.320	        23	    1200	     4.796
  83.340	        29	    1200	     5.385
  83.360	        26	    1200	     5.099
  83.380	        24	    1200	     4.899
  83.400	        23	    1200	     4.796
  83.420	        18	    1200	     4.243
  83.440	        23	    1200	     4.796
  83.460	        30	    1200	     5.477
  83.480	        30	    1200	     5.477
  83.500	        37	    1200	     6.083
  83.520	        20	    1200	     4.472
  83.540	        27	    1200	     5.196
  83.560	        29	    1200	     5.385
  83.580	        18	    1200	     4.243
  83.600	        19	    1200	     4.359
  83.620	        27	    1200	     5.196
  83.640	        20	    1200	     4.472
  83.660	        30	    1200	     5.477
  83.680	        28	    1200	     5.292
  83.700	        30	    1200	     5.477
  83.720	        27	    1200	     5.196
  83.740	        19	    1200	     4.359
  83.760	        25	    1200	     5.000
  83.780	        30	    1200	     5.477
  83.800	        24	    1200	     4.899
  83.820	        18	    1200	     4.243
  83.840	        20	    1200	     4.472
  83.860	        20	    1200	     4.472
  83.880	        28	    1200	     5.292
  83.900	        20	    1200	     4.472
  83.920	        33	    1200	     5.745
  83.940	        15	    1200	     3.873
  83.960	        23	    1200	     4.796
  83.980	        18	    1200	     4.243
  84.000	        16	    1200	     4.000
  84.020	        11	    1200	     3.317
  84.040	        26	    1200	     5.099
  84.060	        19	    1200	     4.359
  84.080	        17	    1200	     4.123
  84.100	        16	    1200	     4.000
  84.120	        20	    1200	     4.472
  84.140	        23	    1200	     4.796
  84.160	        21	    1200	     4.583
  84.180	        25	    1200	     5.000
  84.200	        25	    1200	     5.000
  84.220	        14	    1200	     3.742
  84.240	        17	    1200	     4.123
  84.260	        16	    1200	     4.000
  84.280	        21	    1200	     4.583
  84.300	        29	    1200	     5.385
  84.320	        24	    1200	     4.899
  84.340	        15	    1200	     3.873
  84.360	        26	    1200	     5.099
  84.380	        21	    1200	     4.583
  84.400	        33	    1200	     5.745
  84.420	        23	    1200	     4.796
  84.440	        25	    1200	     5.000
  84.460	        34	    1200	     5.831
  84.480	        23	    1200	     4.796
  84.500	        21	    1200	     4.583
  84.520	        28	    1200	     5.292
  84.540	        21	    1200	     4.583
  84.560	        20	    1200	     4.472
  84.580	        31	    1200	     5.568
  84.600	        22	    1200	     4.690
  84.620	        22	    1200	     4.690
  84.640	        28	    1200	     5.292
  84.660	        23	    1200	     4.796
  84.680	        36	    1200	     6.000
  84.700	        21	    1200	     4.583
  84.720	        25	    1200	     5.000
  84.740	        29	    1200	     5.385
  84.760	        31	    1200	     5.568
  84.780	        30	    1200	     5.477
  84.800	        28	    1200	     5.292
  84.820	        29	    1200	     5.385
  84.840	        35	    1200	     5.916
  84.860	        44	    1200	     6.633
  84.880	        39	    1200	     6.245
  84.900	        31	    1200	     5.568
  84.920	        34	    1200	     5.831
  84.940	        36	    1200	     6.000
  84.960	        34	    1200	     5.831
  84.980	        33	    1200	     5.745
  85.000	        34	    1200	     5.831
  85.020	        40	    1200	     6.325
  85.040	        22	    1200	     4.690
  85.060	        36	    1200	     6.000
  85.080	        23	    1200	     4.796
  85.100	        26	    1200	     5.099
  85.120	        34	    1200	     5.831
  85.140	        34	    1200	     5.831
  85.160	        29	    1200	     5.385
  85.180	        42	    1200	     6.481
  85.200	        24	    1200	     4.899
  85.220	        40	    1200	     6.325
  85.240	        31	    1200	     5.568
  85.260	        25	    1200	     5.000
  85.280	        24	    1200	     4.899
  85.300	        35	    1200	     5.916
  85.320	        31	    1200	     5.568
  85.340	        29	    1200	     5.385
  85.360	        29	    1200	     5.385
  85.380	        34	    1200	     5.831
  85.400	        29	    1200	     5.385
  85.420	        32	    1200	     5.657
  85.440	        25	    1200	     5.000
  85.460	        23	    1200	     4.796
  85.480	        39	    1200	     6.245
  85.500	        30	    1200	     5.477
  85.520	        24	    1200	     4.899
  85.540	        32	    1200	     5.657
  85.560	        32	    1200	     5.657
  85.580	        32	    1200	     5.657
  85.600	        26	    1200	     5.099
  85.620	        43	    1200	     6.557
  85.640	        40	    1200	     6.325
  85.660	        42	    1200	     6.481
  85.680	        31	    1200	     5.568
  85.700	        52	    1200	     7.211
  85.720	        50	    1200	     7.071
  85.740	        60	    1200	     7.746
  85.760	        47	    1200	     6.856
  85.780	        62	    1200	     7.874
  85.800	        77	    1200	     8.775
  85.820	        63	    1200	     7.937
  85.840	        68	    1200	     8.246
  85.860	        83	    1200	     9.110
  85.880	        84	    1200	     9.165
  85.900	        59	    1200	     7.681
  85.920	        75	    1200	     8.660
  85.940	        99	    1200	     9.950
  85.960	       104	    1200	    10.198
  85.980	       108	    1200	    10.392
  86.000	       124	    1200	    11.136
  86.020	       108	    1200	    10.392
  86.040	       121	    1200	    11.000
  86.060	       102	    1200	    10.100
  86.080	       126	    1200	    11.225
  86.100	       130	    1200	    11.402
  86.120	       100	    1200	    10.000
  86.140	       106	    1200	    10.296
  86.160	       100	    1200	    10.000
  86.180	        90	    1200	     9.487
  86.200	        99	    1200	     9.950
  86.220	       106	    1200	    10.296
  86.240	        83	    1200	     9.110
  86.260	        88	    1200	     9.381
  86.280	       102	    1200	    10.100
  86.300	        64	    1200	     8.000
  86.320	        74	    1200	     8.602
  86.340	        81	    1200	     9.000
  86.360	        71	    1200	     8.426
  86.380	        68	    1200	     8.246
  86.400	        45	    1200	     6.708
  86.420	        58	    1200	     7.616
  86.440	        65	    1200	     8.062
  86.460	        49	    1200	     7.000
  86.480	        48	    1200	     6.928
  86.500	        49	    1200	     7.000
  86.520	        47	    1200	     6.856
  86.540	        38	    1200	     6.164
  86.560	        40	    1200	     6.325
  86.580	        40	    1200	     6.325
  86.600	        36	    1200	     6.000
  86.620	        33	    1200	     5.745
  86.640	        38	    1200	     6.164
  86.660	        29	    1200	     5.385
  86.680	        25	    1200	     5.000
  86.700	        34	    1200	     5.831
  86.720	        33	    1200	     5.745
  86.740	        27	    1200	     5.196
  86.760	        33	    1200	     5.745
  86.780	        36	    1200	     6.000
  86.800	        27	    1200	     5.196
  86.820	        27	    1200	     5.196
  86.840	        26	    1200	     5.099
  86.860	        26	    1200	     5.099
  86.880	        16	    1200	     4.000
  86.900	        26	    1200	     5.099
  86.920	        25	    1200	     5.000
  86.940	        19	    1200	     4.359
  86.960	        19	    1200	     4.359
  86.980	        21	    1200	     4.583
  87.000	        26	    1200	     5.099
  87.020	        10	    1200	     3.162
  87.040	        22	    1200	     4.690
  87.060	         9	    1200	     3.000
  87.080	        22	    1200	     4.690
  87.100	        20	    1200	     4.472
  87.120	        20	    1200	     4.472
  87.140	        19	    1200	     4.359
  87.160	        24	    1200	     4.899
  87.180	        20	    1200	     4.472
  87.200	        16	    1200	     4.000
  87.220	        24	    1200	     4.899
  87.240	        18	    1200	     4.243
  87.260	        30	    1200	     5.477
  87.280	        17	    1200	     4.123
  87.300	        20	    1200	     4.472
  87.320	        17	    1200	     4.123
  87.340	        31	    1200	     5.568
  87.360	        15	    1200	     3.873
  87.380	        23	    1200	     4.796
  87.400	        14	    1200	     3.742
  87.420	        14	    1200	     3.742
  87.440	        22	    1200	     4.690
  87.460	        19	    1200	     4.359
  87.480	        22	    1200	     4.690
  87.500	        21	    1200	     4.583
  87.520	        17	    1200	     4.123
  87.540	        17	    1200	     4.123
  87.560	        16	    1200	     4.000
  87.580	        16	    1200	     4.000
  87.600	        26	    1200	     5.099
  87.620	        17	    1200	     4.123
  87.640	        11	    1200	     3.317
  87.660	        11	    1200	     3.317
  87.680	        15	    1200	     3.873
  87.700	        21	    1200	     4.583
  87.720	        13	    1200	     3.606
  87.740	        17	    1200	     4.123
  87.760	        17	    1200	     4.123
  87.780	        22	    1200	     4.690
  87.800	        16	    1200	     4.000
  87.820	        19	    1200	     4.359
  87.840	        12	    1200	     3.464
  87.860	        18	    1200	     4.243
  87.880	        12	    1200	     3.464
  87.900	        19	    1200	     4.359
  87.920	         9	    1200	     3.000
  87.940	        19	    1200	     4.359
  87.960	        16	    1200	     4.000
  87.980	        18	    1200	     4.243
  88.000	        16	    1200	     4.000
  88.020	        12	    1200	     3.464
  88.040	        13	    1200	     3.606
  88.060	        18	    1200	     4.243
  88.080	        14	    1200	     3.742
  88.100	        24	    1200	     4.899
  88.120	        15	    1200	     3.873
  88.140	        13	    1200	     3.606
  88.160	        11	    1200	     3.317
  88.180	        20	    1200	     4.472
  88.200	        23	    1200	     4.796
  88.220	        20	    1200	     4.472
  88.240	         9	    1200	     3.000
  88.260	        16	    1200	     4.000
  88.280	        14	    1200	     3.742
  88.300	        11	    1200	     3.317
  88.320	        15	    1200	     3.873
  88.340	        21	    1200	     4.583
  88.360	        20	    1200	     4.472
  88.380	        16	    1200	     4.000
  88.400	        17	    1200	     4.123
  88.420	        19	    1200	     4.359
  88.440	        16	    1200	     4.000
  88.460	        21	    1200	     4.583
  88.480	        25	    1200	     5.000
  88.500	        17	    1200	     4.123
  88.520	        13	    1200	     3.606
  88.540	        22	    1200	     4.690
  88.560	        16	    1200	     4.000
  88.580	        17	    1200	     4.123
  88.600	        16	    1200	     4.000
  88.620	        18	    1200	     4.243
  88.640	        21	    1200	     4.583
  88.660	        17	    1200	     4.123
  88.680	        13	    1200	     3.606
  88.700	        24	    1200	     4.899
  88.720	        17	    1200	     4.123
  88.740	        24	    1200	     4.899
  88.760	        23	    1200	     4.796
  88.780	        17	    1200	     4.123
  88.800	        19	    1200	     4.359
  88.820	        24	    1200	     4.899
  88.840	        22	    1200	     4.690
  88.860	        18	    1200	     4.243
  88.880	        18	    1200	     4.243
  88.900	        14	    1200	     3.742
  88.920	        29	    1200	     5.385
  88.940	        13	    1200	     3.606
  88.960	        16	    1200	     4.000
  88.980	        13	    1200	     3.606
  89.000	        23	    1200	     4.796
  89.020	        16	    1200	     4.000
  89.040	        13	    1200	     3.606
  89.060	        14	    1200	     3.742
  89.080	        18	    1200	     4.243
  89.100	        24	    1200	     4.899
  89.120	        15	    1200	     3.873
  89.140	        13	    1200	     3.606
  89.160	        17	    1200	     4.123
  89.180	        14	    1200	     3.742
  89.200	        13	    1200	     3.606
  89.220	        32	    1200	     5.657
  89.240	        19	    1200	     4.359
  89.260	        16	    1200	     4.000
  89.280	        25	    1200	     5.000
  89.300	        25	    1200	     5.000
  89.320	        18	    1200	     4.243
  89.340	        22	    1200	     4.690
  89.360	        22	    1200	     4.690
  89.380	        17	    1200	     4.123
  89.400	        19	    1200	     4.359
  89.420	        19	    1200	     4.359
  89.440	        23	    1200	     4.796
  89.460	        22	    1200	     4.690
  89.480	        20	    1200	     4.472
  89.500	        21	    1200	     4.583
  89.520	        13	    1200	     3.606
  89.540	        18	    1200	     4.243
  89.560	        17	    1200	     4.123
  89.580	        20	    1200	     4.472
  89.600	        10	    1200	     3.162
  89.620	        18	    1200	     4.243
  89.640	        23	    1200	     4.796
  89.660	        15	    1200	     3.873
  89.680	        17	    1200	     4.123
  89.700	        15	    1200	     3.873
  89.720	        16	    1200	     4.000
  89.740	        20	    1200	     4.472
  89.760	        21	    1200	     4.583
  89.780	        13	    1200	     3.606
  89.800	        18	    1200	     4.243
  89.820	        12	    1200	     3.464
  89.840	        21	    1200	     4.583
  89.860	        21	    1200	     4.583
  89.880	        21	    1200	     4.583
  89.900	        11	    1200	     3.317
  89.920	        21	    1200	     4.583
  89.940	        19	    1200	     4.359
  89.960	        17	    1200	     4.123
  89.980	        19	    1200	     4.359
  90.000	        23	    1200	     4.796
