         ID: 

    Comment: 

Scan Type: Normal
Start Angle: 15 deg.
Stop Angle: 90 deg.
Num Points: 3751
Step Size: 0.02 deg.
Datafile Res: 1600 
Scan Rate: 1.000000
Scan Mode: Continuous
Wavelength: 1.540562

Diffractometer Optics:
		Detector:
			 Type: Fixed Slits
			 X2 Configuration: No
		Tube: 
			 Type: Fixed Slits
			 X2 Configuration: No


Axis[0]
	 Selected   : no 
	 Iterative  : no 
	 Start Angle: 0.000000 
	 Stop Angle : 0.000000 
	 Step Size  : 0.000000 
	 Oscillating: no 

Axis[1]
	 Selected   : no 
	 Iterative  : no 
	 Start Angle: 0.000000 
	 Stop Angle : 0.000000 
	 Step Size  : 0.000000 
	 Oscillating: no 

Axis[2]
	 Selected   : no 
	 Iterative  : no 
	 Start Angle: 0.000000 
	 Stop Angle : 0.000000 
	 Step Size  : 0.000000 
	 Oscillating: no 

Axis[3]
	 Selected   : no 
	 Iterative  : no 
	 Start Angle: 0.000000 
	 Stop Angle : 0.000000 
	 Step Size  : 0.000000 
	 Oscillating: no 

Axis[4]
	 Selected   : no 
	 Iterative  : no 
	 Start Angle: 0.000000 
	 Stop Angle : 0.000000 
	 Step Size  : 0.000000 
	 Oscillating: no 

Axis[5]
	 Selected   : no 
	 Iterative  : no 
	 Start Angle: 0.000000 
	 Stop Angle : 0.000000 
	 Step Size  : 0.000000 
	 Oscillating: no 

Axis[6]
	 Selected   : no 
	 Iterative  : no 
	 Start Angle: 0.000000 
	 Stop Angle : 0.000000 
	 Step Size  : 0.000000 
	 Oscillating: no 

Axis[7]
	 Selected   : no 
	 Iterative  : no 
	 Start Angle: 0.000000 
	 Stop Angle : 0.000000 
	 Step Size  : 0.000000 
	 Oscillating: no 

Axis[8]
	 Selected   : no 
	 Iterative  : no 
	 Start Angle: 0.000000 
	 Stop Angle : 0.000000 
	 Step Size  : 0.000000 
	 Oscillating: no 

Axis[9]
	 Selected   : no 
	 Iterative  : no 
	 Start Angle: 0.000000 
	 Stop Angle : 0.000000 
	 Step Size  : 0.000000 
	 Oscillating: no 




	   Deg.    Counts 	   Time 	    ESD   

Range 0
  15.000	        93	    1200	     9.644
  15.020	       112	    1200	    10.583
  15.040	       111	    1200	    10.536
  15.060	       111	    1200	    10.536
  15.080	       119	    1200	    10.909
  15.100	       113	    1200	    10.630
  15.120	       101	    1200	    10.050
  15.140	       102	    1200	    10.100
  15.160	       115	    1200	    10.724
  15.180	       114	    1200	    10.677
  15.200	        99	    1200	     9.950
  15.220	       118	    1200	    10.863
  15.240	       104	    1200	    10.198
  15.260	        82	    1200	     9.055
  15.280	       126	    1200	    11.225
  15.300	       107	    1200	    10.344
  15.320	        96	    1200	     9.798
  15.340	       130	    1200	    11.402
  15.360	       111	    1200	    10.536
  15.380	       107	    1200	    10.344
  15.400	       125	    1200	    11.180
  15.420	       101	    1200	    10.050
  15.440	       106	    1200	    10.296
  15.460	        82	    1200	     9.055
  15.480	       105	    1200	    10.247
  15.500	       109	    1200	    10.440
  15.520	        94	    1200	     9.695
  15.540	        91	    1200	     9.539
  15.560	       106	    1200	    10.296
  15.580	       130	    1200	    11.402
  15.600	       108	    1200	    10.392
  15.620	        91	    1200	     9.539
  15.640	       109	    1200	    10.440
  15.660	       110	    1200	    10.488
  15.680	       114	    1200	    10.677
  15.700	       110	    1200	    10.488
  15.720	       116	    1200	    10.770
  15.740	       109	    1200	    10.440
  15.760	       103	    1200	    10.149
  15.780	       103	    1200	    10.149
  15.800	        96	    1200	     9.798
  15.820	       110	    1200	    10.488
  15.840	       110	    1200	    10.488
  15.860	       115	    1200	    10.724
  15.880	       102	    1200	    10.100
  15.900	       104	    1200	    10.198
  15.920	        98	    1200	     9.899
  15.940	        93	    1200	     9.644
  15.960	       100	    1200	    10.000
  15.980	       121	    1200	    11.000
  16.000	       114	    1200	    10.677
  16.020	       116	    1200	    10.770
  16.040	        90	    1200	     9.487
  16.060	       118	    1200	    10.863
  16.080	       102	    1200	    10.100
  16.100	       105	    1200	    10.247
  16.120	       100	    1200	    10.000
  16.140	       106	    1200	    10.296
  16.160	        96	    1200	     9.798
  16.180	        98	    1200	     9.899
  16.200	       101	    1200	    10.050
  16.220	        98	    1200	     9.899
  16.240	       112	    1200	    10.583
  16.260	        99	    1200	     9.950
  16.280	       106	    1200	    10.296
  16.300	        97	    1200	     9.849
  16.320	        82	    1200	     9.055
  16.340	       120	    1200	    10.954
  16.360	       105	    1200	    10.247
  16.380	       111	    1200	    10.536
  16.400	        97	    1200	     9.849
  16.420	       105	    1200	    10.247
  16.440	       106	    1200	    10.296
  16.460	        96	    1200	     9.798
  16.480	        90	    1200	     9.487
  16.500	        95	    1200	     9.747
  16.520	       134	    1200	    11.576
  16.540	        98	    1200	     9.899
  16.560	        96	    1200	     9.798
  16.580	        82	    1200	     9.055
  16.600	        90	    1200	     9.487
  16.620	       102	    1200	    10.100
  16.640	       100	    1200	    10.000
  16.660	       105	    1200	    10.247
  16.680	        99	    1200	     9.950
  16.700	       108	    1200	    10.392
  16.720	       103	    1200	    10.149
  16.740	        98	    1200	     9.899
  16.760	       117	    1200	    10.817
  16.780	        83	    1200	     9.110
  16.800	       125	    1200	    11.180
  16.820	        91	    1200	     9.539
  16.840	       117	    1200	    10.817
  16.860	       102	    1200	    10.100
  16.880	       104	    1200	    10.198
  16.900	       126	    1200	    11.225
  16.920	        81	    1200	     9.000
  16.940	        92	    1200	     9.592
  16.960	       110	    1200	    10.488
  16.980	       118	    1200	    10.863
  17.000	        91	    1200	     9.539
  17.020	        95	    1200	     9.747
  17.040	       114	    1200	    10.677
  17.060	       115	    1200	    10.724
  17.080	        96	    1200	     9.798
  17.100	       111	    1200	    10.536
  17.120	       104	    1200	    10.198
  17.140	       109	    1200	    10.440
  17.160	        95	    1200	     9.747
  17.180	        92	    1200	     9.592
  17.200	        99	    1200	     9.950
  17.220	        83	    1200	     9.110
  17.240	       100	    1200	    10.000
  17.260	        99	    1200	     9.950
  17.280	        84	    1200	     9.165
  17.300	       106	    1200	    10.296
  17.320	        85	    1200	     9.220
  17.340	        91	    1200	     9.539
  17.360	       106	    1200	    10.296
  17.380	       106	    1200	    10.296
  17.400	        94	    1200	     9.695
  17.420	        88	    1200	     9.381
  17.440	        75	    1200	     8.660
  17.460	        99	    1200	     9.950
  17.480	       114	    1200	    10.677
  17.500	       103	    1200	    10.149
  17.520	        84	    1200	     9.165
  17.540	        96	    1200	     9.798
  17.560	       100	    1200	    10.000
  17.580	        94	    1200	     9.695
  17.600	        74	    1200	     8.602
  17.620	       102	    1200	    10.100
  17.640	       100	    1200	    10.000
  17.660	       109	    1200	    10.440
  17.680	       109	    1200	    10.440
  17.700	        90	    1200	     9.487
  17.720	       119	    1200	    10.909
  17.740	        98	    1200	     9.899
  17.760	        83	    1200	     9.110
  17.780	        99	    1200	     9.950
  17.800	        92	    1200	     9.592
  17.820	       101	    1200	    10.050
  17.840	        90	    1200	     9.487
  17.860	        98	    1200	     9.899
  17.880	        94	    1200	     9.695
  17.900	       106	    1200	    10.296
  17.920	       115	    1200	    10.724
  17.940	        83	    1200	     9.110
  17.960	        79	    1200	     8.888
  17.980	       101	    1200	    10.050
  18.000	       103	    1200	    10.149
  18.020	        93	    1200	     9.644
  18.040	        90	    1200	     9.487
  18.060	        93	    1200	     9.644
  18.080	       100	    1200	    10.000
  18.100	       113	    1200	    10.630
  18.120	        98	    1200	     9.899
  18.140	       108	    1200	    10.392
  18.160	       106	    1200	    10.296
  18.180	       118	    1200	    10.863
  18.200	        87	    1200	     9.327
  18.220	       101	    1200	    10.050
  18.240	        89	    1200	     9.434
  18.260	       113	    1200	    10.630
  18.280	        90	    1200	     9.487
  18.300	       103	    1200	    10.149
  18.320	        89	    1200	     9.434
  18.340	        88	    1200	     9.381
  18.360	        96	    1200	     9.798
  18.380	        91	    1200	     9.539
  18.400	        99	    1200	     9.950
  18.420	        84	    1200	     9.165
  18.440	       103	    1200	    10.149
  18.460	       110	    1200	    10.488
  18.480	       112	    1200	    10.583
  18.500	       103	    1200	    10.149
  18.520	        91	    1200	     9.539
  18.540	       101	    1200	    10.050
  18.560	        90	    1200	     9.487
  18.580	        99	    1200	     9.950
  18.600	        84	    1200	     9.165
  18.620	        81	    1200	     9.000
  18.640	       102	    1200	    10.100
  18.660	       102	    1200	    10.100
  18.680	        97	    1200	     9.849
  18.700	        88	    1200	     9.381
  18.720	       103	    1200	    10.149
  18.740	       112	    1200	    10.583
  18.760	        98	    1200	     9.899
  18.780	        96	    1200	     9.798
  18.800	        87	    1200	     9.327
  18.820	        85	    1200	     9.220
  18.840	        95	    1200	     9.747
  18.860	        96	    1200	     9.798
  18.880	        88	    1200	     9.381
  18.900	        93	    1200	     9.644
  18.920	       112	    1200	    10.583
  18.940	        83	    1200	     9.110
  18.960	       104	    1200	    10.198
  18.980	        98	    1200	     9.899
  19.000	        76	    1200	     8.718
  19.020	        92	    1200	     9.592
  19.040	        78	    1200	     8.832
  19.060	        87	    1200	     9.327
  19.080	        96	    1200	     9.798
  19.100	        99	    1200	     9.950
  19.120	        84	    1200	     9.165
  19.140	        99	    1200	     9.950
  19.160	        91	    1200	     9.539
  19.180	        97	    1200	     9.849
  19.200	        59	    1200	     7.681
  19.220	        99	    1200	     9.950
  19.240	       104	    1200	    10.198
  19.260	        96	    1200	     9.798
  19.280	        94	    1200	     9.695
  19.300	        90	    1200	     9.487
  19.320	        71	    1200	     8.426
  19.340	       120	    1200	    10.954
  19.360	        92	    1200	     9.592
  19.380	        97	    1200	     9.849
  19.400	        88	    1200	     9.381
  19.420	        95	    1200	     9.747
  19.440	        93	    1200	     9.644
  19.460	        78	    1200	     8.832
  19.480	        90	    1200	     9.487
  19.500	        98	    1200	     9.899
  19.520	        91	    1200	     9.539
  19.540	       104	    1200	    10.198
  19.560	        76	    1200	     8.718
  19.580	        98	    1200	     9.899
  19.600	        75	    1200	     8.660
  19.620	        96	    1200	     9.798
  19.640	       108	    1200	    10.392
  19.660	       101	    1200	    10.050
  19.680	        90	    1200	     9.487
  19.700	       108	    1200	    10.392
  19.720	        94	    1200	     9.695
  19.740	        93	    1200	     9.644
  19.760	        91	    1200	     9.539
  19.780	        79	    1200	     8.888
  19.800	        97	    1200	     9.849
  19.820	        94	    1200	     9.695
  19.840	        82	    1200	     9.055
  19.860	        97	    1200	     9.849
  19.880	        91	    1200	     9.539
  19.900	        97	    1200	     9.849
  19.920	       106	    1200	    10.296
  19.940	       122	    1200	    11.045
  19.960	        92	    1200	     9.592
  19.980	        91	    1200	     9.539
  20.000	        89	    1200	     9.434
  20.020	       102	    1200	    10.100
  20.040	       100	    1200	    10.000
  20.060	        90	    1200	     9.487
  20.080	        81	    1200	     9.000
  20.100	       102	    1200	    10.100
  20.120	        87	    1200	     9.327
  20.140	        85	    1200	     9.220
  20.160	       109	    1200	    10.440
  20.180	        98	    1200	     9.899
  20.200	        84	    1200	     9.165
  20.220	        87	    1200	     9.327
  20.240	        96	    1200	     9.798
  20.260	        99	    1200	     9.950
  20.280	        89	    1200	     9.434
  20.300	        91	    1200	     9.539
  20.320	        95	    1200	     9.747
  20.340	        97	    1200	     9.849
  20.360	        82	    1200	     9.055
  20.380	        82	    1200	     9.055
  20.400	        83	    1200	     9.110
  20.420	        84	    1200	     9.165
  20.440	       108	    1200	    10.392
  20.460	        99	    1200	     9.950
  20.480	        90	    1200	     9.487
  20.500	        93	    1200	     9.644
  20.520	        82	    1200	     9.055
  20.540	        74	    1200	     8.602
  20.560	        93	    1200	     9.644
  20.580	        82	    1200	     9.055
  20.600	       100	    1200	    10.000
  20.620	       103	    1200	    10.149
  20.640	       100	    1200	    10.000
  20.660	        91	    1200	     9.539
  20.680	        93	    1200	     9.644
  20.700	       109	    1200	    10.440
  20.720	        96	    1200	     9.798
  20.740	        88	    1200	     9.381
  20.760	        92	    1200	     9.592
  20.780	        91	    1200	     9.539
  20.800	       101	    1200	    10.050
  20.820	        89	    1200	     9.434
  20.840	       104	    1200	    10.198
  20.860	        95	    1200	     9.747
  20.880	        91	    1200	     9.539
  20.900	        99	    1200	     9.950
  20.920	        80	    1200	     8.944
  20.940	        95	    1200	     9.747
  20.960	        83	    1200	     9.110
  20.980	        87	    1200	     9.327
  21.000	        70	    1200	     8.367
  21.020	        83	    1200	     9.110
  21.040	        92	    1200	     9.592
  21.060	        75	    1200	     8.660
  21.080	        98	    1200	     9.899
  21.100	       101	    1200	    10.050
  21.120	        78	    1200	     8.832
  21.140	        78	    1200	     8.832
  21.160	        89	    1200	     9.434
  21.180	        84	    1200	     9.165
  21.200	        76	    1200	     8.718
  21.220	        86	    1200	     9.274
  21.240	       100	    1200	    10.000
  21.260	       100	    1200	    10.000
  21.280	        99	    1200	     9.950
  21.300	        90	    1200	     9.487
  21.320	        97	    1200	     9.849
  21.340	        88	    1200	     9.381
  21.360	       110	    1200	    10.488
  21.380	        77	    1200	     8.775
  21.400	        97	    1200	     9.849
  21.420	       105	    1200	    10.247
  21.440	        88	    1200	     9.381
  21.460	        94	    1200	     9.695
  21.480	        73	    1200	     8.544
  21.500	        96	    1200	     9.798
  21.520	        98	    1200	     9.899
  21.540	        85	    1200	     9.220
  21.560	       100	    1200	    10.000
  21.580	        96	    1200	     9.798
  21.600	        84	    1200	     9.165
  21.620	        94	    1200	     9.695
  21.640	        84	    1200	     9.165
  21.660	       104	    1200	    10.198
  21.680	        90	    1200	     9.487
  21.700	        89	    1200	     9.434
  21.720	        76	    1200	     8.718
  21.740	        79	    1200	     8.888
  21.760	        91	    1200	     9.539
  21.780	       100	    1200	    10.000
  21.800	        95	    1200	     9.747
  21.820	        77	    1200	     8.775
  21.840	        90	    1200	     9.487
  21.860	        93	    1200	     9.644
  21.880	        98	    1200	     9.899
  21.900	        82	    1200	     9.055
  21.920	        87	    1200	     9.327
  21.940	       102	    1200	    10.100
  21.960	        99	    1200	     9.950
  21.980	        90	    1200	     9.487
  22.000	        80	    1200	     8.944
  22.020	        89	    1200	     9.434
  22.040	        76	    1200	     8.718
  22.060	        93	    1200	     9.644
  22.080	        88	    1200	     9.381
  22.100	        89	    1200	     9.434
  22.120	        84	    1200	     9.165
  22.140	        81	    1200	     9.000
  22.160	        83	    1200	     9.110
  22.180	        91	    1200	     9.539
  22.200	        85	    1200	     9.220
  22.220	        83	    1200	     9.110
  22.240	        91	    1200	     9.539
  22.260	        94	    1200	     9.695
  22.280	        85	    1200	     9.220
  22.300	        78	    1200	     8.832
  22.320	        84	    1200	     9.165
  22.340	        77	    1200	     8.775
  22.360	        97	    1200	     9.849
  22.380	        85	    1200	     9.220
  22.400	        84	    1200	     9.165
  22.420	        91	    1200	     9.539
  22.440	        94	    1200	     9.695
  22.460	       103	    1200	    10.149
  22.480	       111	    1200	    10.536
  22.500	       109	    1200	    10.440
  22.520	       106	    1200	    10.296
  22.540	       100	    1200	    10.000
  22.560	       101	    1200	    10.050
  22.580	       121	    1200	    11.000
  22.600	       147	    1200	    12.124
  22.620	       143	    1200	    11.958
  22.640	       141	    1200	    11.874
  22.660	       135	    1200	    11.619
  22.680	       151	    1200	    12.288
  22.700	       135	    1200	    11.619
  22.720	       123	    1200	    11.091
  22.740	       136	    1200	    11.662
  22.760	       119	    1200	    10.909
  22.780	       123	    1200	    11.091
  22.800	       116	    1200	    10.770
  22.820	       115	    1200	    10.724
  22.840	       108	    1200	    10.392
  22.860	        91	    1200	     9.539
  22.880	        98	    1200	     9.899
  22.900	        88	    1200	     9.381
  22.920	        81	    1200	     9.000
  22.940	        90	    1200	     9.487
  22.960	        80	    1200	     8.944
  22.980	        97	    1200	     9.849
  23.000	        81	    1200	     9.000
  23.020	        85	    1200	     9.220
  23.040	        78	    1200	     8.832
  23.060	        79	    1200	     8.888
  23.080	        73	    1200	     8.544
  23.100	        74	    1200	     8.602
  23.120	        85	    1200	     9.220
  23.140	        77	    1200	     8.775
  23.160	        88	    1200	     9.381
  23.180	        81	    1200	     9.000
  23.200	        76	    1200	     8.718
  23.220	        80	    1200	     8.944
  23.240	        78	    1200	     8.832
  23.260	        72	    1200	     8.485
  23.280	        85	    1200	     9.220
  23.300	        73	    1200	     8.544
  23.320	        90	    1200	     9.487
  23.340	       101	    1200	    10.050
  23.360	        78	    1200	     8.832
  23.380	        82	    1200	     9.055
  23.400	        74	    1200	     8.602
  23.420	        78	    1200	     8.832
  23.440	        69	    1200	     8.307
  23.460	        91	    1200	     9.539
  23.480	        99	    1200	     9.950
  23.500	        77	    1200	     8.775
  23.520	        72	    1200	     8.485
  23.540	        90	    1200	     9.487
  23.560	        94	    1200	     9.695
  23.580	        60	    1200	     7.746
  23.600	       110	    1200	    10.488
  23.620	        78	    1200	     8.832
  23.640	        83	    1200	     9.110
  23.660	        76	    1200	     8.718
  23.680	        61	    1200	     7.810
  23.700	        76	    1200	     8.718
  23.720	        78	    1200	     8.832
  23.740	        98	    1200	     9.899
  23.760	        82	    1200	     9.055
  23.780	        89	    1200	     9.434
  23.800	        74	    1200	     8.602
  23.820	        85	    1200	     9.220
  23.840	        71	    1200	     8.426
  23.860	        84	    1200	     9.165
  23.880	        68	    1200	     8.246
  23.900	        77	    1200	     8.775
  23.920	        79	    1200	     8.888
  23.940	        78	    1200	     8.832
  23.960	        92	    1200	     9.592
  23.980	        66	    1200	     8.124
  24.000	        66	    1200	     8.124
  24.020	        82	    1200	     9.055
  24.040	        81	    1200	     9.000
  24.060	        66	    1200	     8.124
  24.080	        86	    1200	     9.274
  24.100	        78	    1200	     8.832
  24.120	        79	    1200	     8.888
  24.140	        80	    1200	     8.944
  24.160	        86	    1200	     9.274
  24.180	        81	    1200	     9.000
  24.200	        76	    1200	     8.718
  24.220	        83	    1200	     9.110
  24.240	        78	    1200	     8.832
  24.260	        75	    1200	     8.660
  24.280	        69	    1200	     8.307
  24.300	        84	    1200	     9.165
  24.320	        55	    1200	     7.416
  24.340	        65	    1200	     8.062
  24.360	        78	    1200	     8.832
  24.380	        68	    1200	     8.246
  24.400	        79	    1200	     8.888
  24.420	        72	    1200	     8.485
  24.440	        95	    1200	     9.747
  24.460	        71	    1200	     8.426
  24.480	        78	    1200	     8.832
  24.500	        67	    1200	     8.185
  24.520	        69	    1200	     8.307
  24.540	        72	    1200	     8.485
  24.560	        88	    1200	     9.381
  24.580	        79	    1200	     8.888
  24.600	        75	    1200	     8.660
  24.620	        71	    1200	     8.426
  24.640	        63	    1200	     7.937
  24.660	        87	    1200	     9.327
  24.680	        75	    1200	     8.660
  24.700	        69	    1200	     8.307
  24.720	        57	    1200	     7.550
  24.740	        57	    1200	     7.550
  24.760	        76	    1200	     8.718
  24.780	        60	    1200	     7.746
  24.800	        81	    1200	     9.000
  24.820	        69	    1200	     8.307
  24.840	        90	    1200	     9.487
  24.860	        57	    1200	     7.550
  24.880	        68	    1200	     8.246
  24.900	        78	    1200	     8.832
  24.920	        67	    1200	     8.185
  24.940	        73	    1200	     8.544
  24.960	        88	    1200	     9.381
  24.980	        72	    1200	     8.485
  25.000	        70	    1200	     8.367
  25.020	        75	    1200	     8.660
  25.040	        85	    1200	     9.220
  25.060	        83	    1200	     9.110
  25.080	        71	    1200	     8.426
  25.100	        85	    1200	     9.220
  25.120	        67	    1200	     8.185
  25.140	        67	    1200	     8.185
  25.160	        59	    1200	     7.681
  25.180	        71	    1200	     8.426
  25.200	        87	    1200	     9.327
  25.220	        82	    1200	     9.055
  25.240	        74	    1200	     8.602
  25.260	        71	    1200	     8.426
  25.280	        66	    1200	     8.124
  25.300	        71	    1200	     8.426
  25.320	        73	    1200	     8.544
  25.340	        68	    1200	     8.246
  25.360	        61	    1200	     7.810
  25.380	        76	    1200	     8.718
  25.400	        79	    1200	     8.888
  25.420	        65	    1200	     8.062
  25.440	        73	    1200	     8.544
  25.460	        77	    1200	     8.775
  25.480	        76	    1200	     8.718
  25.500	        72	    1200	     8.485
  25.520	        73	    1200	     8.544
  25.540	        64	    1200	     8.000
  25.560	        75	    1200	     8.660
  25.580	        83	    1200	     9.110
  25.600	        65	    1200	     8.062
  25.620	        61	    1200	     7.810
  25.640	        87	    1200	     9.327
  25.660	        64	    1200	     8.000
  25.680	        67	    1200	     8.185
  25.700	        80	    1200	     8.944
  25.720	        69	    1200	     8.307
  25.740	        65	    1200	     8.062
  25.760	        60	    1200	     7.746
  25.780	        60	    1200	     7.746
  25.800	        62	    1200	     7.874
  25.820	        59	    1200	     7.681
  25.840	        60	    1200	     7.746
  25.860	        62	    1200	     7.874
  25.880	        70	    1200	     8.367
  25.900	        91	    1200	     9.539
  25.920	        55	    1200	     7.416
  25.940	        78	    1200	     8.832
  25.960	        61	    1200	     7.810
  25.980	        79	    1200	     8.888
  26.000	        58	    1200	     7.616
  26.020	        66	    1200	     8.124
  26.040	        62	    1200	     7.874
  26.060	        60	    1200	     7.746
  26.080	        69	    1200	     8.307
  26.100	        74	    1200	     8.602
  26.120	        54	    1200	     7.348
  26.140	        65	    1200	     8.062
  26.160	        63	    1200	     7.937
  26.180	        62	    1200	     7.874
  26.200	        50	    1200	     7.071
  26.220	        65	    1200	     8.062
  26.240	        67	    1200	     8.185
  26.260	        59	    1200	     7.681
  26.280	        60	    1200	     7.746
  26.300	        70	    1200	     8.367
  26.320	        62	    1200	     7.874
  26.340	        62	    1200	     7.874
  26.360	        78	    1200	     8.832
  26.380	        51	    1200	     7.141
  26.400	        66	    1200	     8.124
  26.420	        66	    1200	     8.124
  26.440	        69	    1200	     8.307
  26.460	        82	    1200	     9.055
  26.480	        54	    1200	     7.348
  26.500	        59	    1200	     7.681
  26.520	        59	    1200	     7.681
  26.540	        56	    1200	     7.483
  26.560	        66	    1200	     8.124
  26.580	        71	    1200	     8.426
  26.600	        53	    1200	     7.280
  26.620	        49	    1200	     7.000
  26.640	        67	    1200	     8.185
  26.660	        59	    1200	     7.681
  26.680	        58	    1200	     7.616
  26.700	        72	    1200	     8.485
  26.720	        58	    1200	     7.616
  26.740	        71	    1200	     8.426
  26.760	        54	    1200	     7.348
  26.780	        73	    1200	     8.544
  26.800	        62	    1200	     7.874
  26.820	        62	    1200	     7.874
  26.840	        65	    1200	     8.062
  26.860	        64	    1200	     8.000
  26.880	        65	    1200	     8.062
  26.900	        67	    1200	     8.185
  26.920	        61	    1200	     7.810
  26.940	        59	    1200	     7.681
  26.960	        76	    1200	     8.718
  26.980	        65	    1200	     8.062
  27.000	        62	    1200	     7.874
  27.020	        55	    1200	     7.416
  27.040	        71	    1200	     8.426
  27.060	        65	    1200	     8.062
  27.080	        52	    1200	     7.211
  27.100	        63	    1200	     7.937
  27.120	        62	    1200	     7.874
  27.140	        51	    1200	     7.141
  27.160	        42	    1200	     6.481
  27.180	        61	    1200	     7.810
  27.200	        54	    1200	     7.348
  27.220	        51	    1200	     7.141
  27.240	        49	    1200	     7.000
  27.260	        44	    1200	     6.633
  27.280	        51	    1200	     7.141
  27.300	        51	    1200	     7.141
  27.320	        45	    1200	     6.708
  27.340	        53	    1200	     7.280
  27.360	        67	    1200	     8.185
  27.380	        49	    1200	     7.000
  27.400	        59	    1200	     7.681
  27.420	        38	    1200	     6.164
  27.440	        52	    1200	     7.211
  27.460	        55	    1200	     7.416
  27.480	        76	    1200	     8.718
  27.500	        45	    1200	     6.708
  27.520	        49	    1200	     7.000
  27.540	        49	    1200	     7.000
  27.560	        65	    1200	     8.062
  27.580	        49	    1200	     7.000
  27.600	        55	    1200	     7.416
  27.620	        71	    1200	     8.426
  27.640	        55	    1200	     7.416
  27.660	        75	    1200	     8.660
  27.680	        57	    1200	     7.550
  27.700	        48	    1200	     6.928
  27.720	        57	    1200	     7.550
  27.740	        50	    1200	     7.071
  27.760	        61	    1200	     7.810
  27.780	        46	    1200	     6.782
  27.800	        58	    1200	     7.616
  27.820	        57	    1200	     7.550
  27.840	        55	    1200	     7.416
  27.860	        60	    1200	     7.746
  27.880	        69	    1200	     8.307
  27.900	        49	    1200	     7.000
  27.920	        49	    1200	     7.000
  27.940	        61	    1200	     7.810
  27.960	        60	    1200	     7.746
  27.980	        53	    1200	     7.280
  28.000	        51	    1200	     7.141
  28.020	        52	    1200	     7.211
  28.040	        44	    1200	     6.633
  28.060	        53	    1200	     7.280
  28.080	        60	    1200	     7.746
  28.100	        73	    1200	     8.544
  28.120	        46	    1200	     6.782
  28.140	        59	    1200	     7.681
  28.160	        66	    1200	     8.124
  28.180	        42	    1200	     6.481
  28.200	        47	    1200	     6.856
  28.220	        55	    1200	     7.416
  28.240	        48	    1200	     6.928
  28.260	        64	    1200	     8.000
  28.280	        50	    1200	     7.071
  28.300	        46	    1200	     6.782
  28.320	        58	    1200	     7.616
  28.340	        51	    1200	     7.141
  28.360	        46	    1200	     6.782
  28.380	        44	    1200	     6.633
  28.400	        36	    1200	     6.000
  28.420	        51	    1200	     7.141
  28.440	        66	    1200	     8.124
  28.460	        67	    1200	     8.185
  28.480	        59	    1200	     7.681
  28.500	        55	    1200	     7.416
  28.520	        48	    1200	     6.928
  28.540	        31	    1200	     5.568
  28.560	        46	    1200	     6.782
  28.580	        49	    1200	     7.000
  28.600	        45	    1200	     6.708
  28.620	        61	    1200	     7.810
  28.640	        49	    1200	     7.000
  28.660	        57	    1200	     7.550
  28.680	        49	    1200	     7.000
  28.700	        38	    1200	     6.164
  28.720	        46	    1200	     6.782
  28.740	        62	    1200	     7.874
  28.760	        47	    1200	     6.856
  28.780	        39	    1200	     6.245
  28.800	        39	    1200	     6.245
  28.820	        55	    1200	     7.416
  28.840	        47	    1200	     6.856
  28.860	        43	    1200	     6.557
  28.880	        51	    1200	     7.141
  28.900	        54	    1200	     7.348
  28.920	        38	    1200	     6.164
  28.940	        48	    1200	     6.928
  28.960	        50	    1200	     7.071
  28.980	        47	    1200	     6.856
  29.000	        51	    1200	     7.141
  29.020	        42	    1200	     6.481
  29.040	        61	    1200	     7.810
  29.060	        57	    1200	     7.550
  29.080	        47	    1200	     6.856
  29.100	        46	    1200	     6.782
  29.120	        55	    1200	     7.416
  29.140	        54	    1200	     7.348
  29.160	        55	    1200	     7.416
  29.180	        42	    1200	     6.481
  29.200	        53	    1200	     7.280
  29.220	        65	    1200	     8.062
  29.240	        39	    1200	     6.245
  29.260	        41	    1200	     6.403
  29.280	        41	    1200	     6.403
  29.300	        42	    1200	     6.481
  29.320	        46	    1200	     6.782
  29.340	        54	    1200	     7.348
  29.360	        47	    1200	     6.856
  29.380	        52	    1200	     7.211
  29.400	        59	    1200	     7.681
  29.420	        45	    1200	     6.708
  29.440	        43	    1200	     6.557
  29.460	        53	    1200	     7.280
  29.480	        53	    1200	     7.280
  29.500	        46	    1200	     6.782
  29.520	        50	    1200	     7.071
  29.540	        61	    1200	     7.810
  29.560	        49	    1200	     7.000
  29.580	        41	    1200	     6.403
  29.600	        46	    1200	     6.782
  29.620	        48	    1200	     6.928
  29.640	        47	    1200	     6.856
  29.660	        51	    1200	     7.141
  29.680	        40	    1200	     6.325
  29.700	        49	    1200	     7.000
  29.720	        50	    1200	     7.071
  29.740	        58	    1200	     7.616
  29.760	        53	    1200	     7.280
  29.780	        55	    1200	     7.416
  29.800	        35	    1200	     5.916
  29.820	        39	    1200	     6.245
  29.840	        58	    1200	     7.616
  29.860	        44	    1200	     6.633
  29.880	        27	    1200	     5.196
  29.900	        41	    1200	     6.403
  29.920	        42	    1200	     6.481
  29.940	        42	    1200	     6.481
  29.960	        54	    1200	     7.348
  29.980	        35	    1200	     5.916
  30.000	        50	    1200	     7.071
  30.020	        49	    1200	     7.000
  30.040	        43	    1200	     6.557
  30.060	        46	    1200	     6.782
  30.080	        41	    1200	     6.403
  30.100	        46	    1200	     6.782
  30.120	        37	    1200	     6.083
  30.140	        49	    1200	     7.000
  30.160	        45	    1200	     6.708
  30.180	        36	    1200	     6.000
  30.200	        51	    1200	     7.141
  30.220	        45	    1200	     6.708
  30.240	        42	    1200	     6.481
  30.260	        40	    1200	     6.325
  30.280	        47	    1200	     6.856
  30.300	        55	    1200	     7.416
  30.320	        40	    1200	     6.325
  30.340	        56	    1200	     7.483
  30.360	        54	    1200	     7.348
  30.380	        49	    1200	     7.000
  30.400	        57	    1200	     7.550
  30.420	        44	    1200	     6.633
  30.440	        36	    1200	     6.000
  30.460	        48	    1200	     6.928
  30.480	        46	    1200	     6.782
  30.500	        59	    1200	     7.681
  30.520	        49	    1200	     7.000
  30.540	        47	    1200	     6.856
  30.560	        40	    1200	     6.325
  30.580	        60	    1200	     7.746
  30.600	        41	    1200	     6.403
  30.620	        41	    1200	     6.403
  30.640	        57	    1200	     7.550
  30.660	        54	    1200	     7.348
  30.680	        54	    1200	     7.348
  30.700	        38	    1200	     6.164
  30.720	        56	    1200	     7.483
  30.740	        51	    1200	     7.141
  30.760	        52	    1200	     7.211
  30.780	        37	    1200	     6.083
  30.800	        45	    1200	     6.708
  30.820	        47	    1200	     6.856
  30.840	        57	    1200	     7.550
  30.860	        57	    1200	     7.550
  30.880	        63	    1200	     7.937
  30.900	        38	    1200	     6.164
  30.920	        51	    1200	     7.141
  30.940	        51	    1200	     7.141
  30.960	        47	    1200	     6.856
  30.980	        50	    1200	     7.071
  31.000	        43	    1200	     6.557
  31.020	        55	    1200	     7.416
  31.040	        50	    1200	     7.071
  31.060	        42	    1200	     6.481
  31.080	        71	    1200	     8.426
  31.100	        55	    1200	     7.416
  31.120	        60	    1200	     7.746
  31.140	        63	    1200	     7.937
  31.160	        61	    1200	     7.810
  31.180	        51	    1200	     7.141
  31.200	        44	    1200	     6.633
  31.220	        56	    1200	     7.483
  31.240	        59	    1200	     7.681
  31.260	        56	    1200	     7.483
  31.280	        60	    1200	     7.746
  31.300	        49	    1200	     7.000
  31.320	        54	    1200	     7.348
  31.340	        56	    1200	     7.483
  31.360	        49	    1200	     7.000
  31.380	        71	    1200	     8.426
  31.400	        58	    1200	     7.616
  31.420	        69	    1200	     8.307
  31.440	        73	    1200	     8.544
  31.460	        49	    1200	     7.000
  31.480	        64	    1200	     8.000
  31.500	        65	    1200	     8.062
  31.520	        61	    1200	     7.810
  31.540	        72	    1200	     8.485
  31.560	        75	    1200	     8.660
  31.580	        68	    1200	     8.246
  31.600	        71	    1200	     8.426
  31.620	        83	    1200	     9.110
  31.640	        77	    1200	     8.775
  31.660	        73	    1200	     8.544
  31.680	        93	    1200	     9.644
  31.700	        70	    1200	     8.367
  31.720	        96	    1200	     9.798
  31.740	        92	    1200	     9.592
  31.760	       100	    1200	    10.000
  31.780	        90	    1200	     9.487
  31.800	       111	    1200	    10.536
  31.820	       105	    1200	    10.247
  31.840	        81	    1200	     9.000
  31.860	       104	    1200	    10.198
  31.880	       131	    1200	    11.446
  31.900	       129	    1200	    11.358
  31.920	       127	    1200	    11.269
  31.940	       144	    1200	    12.000
  31.960	       165	    1200	    12.845
  31.980	       183	    1200	    13.528
  32.000	       198	    1200	    14.071
  32.020	       230	    1200	    15.166
  32.040	       253	    1200	    15.906
  32.060	       322	    1200	    17.944
  32.080	       420	    1200	    20.494
  32.100	       486	    1200	    22.045
  32.120	       664	    1200	    25.768
  32.140	       717	    1200	    26.777
  32.160	       796	    1200	    28.213
  32.180	      1020	    1200	    31.937
  32.200	      1163	    1200	    34.103
  32.220	      1332	    1200	    36.497
  32.240	      1557	    1200	    39.459
  32.260	      1803	    1200	    42.462
  32.280	      2046	    1200	    45.233
  32.300	      2374	    1200	    48.724
  32.320	      2591	    1200	    50.902
  32.340	      2962	    1200	    54.424
  32.360	      3191	    1200	    56.489
  32.380	      3309	    1200	    57.524
  32.400	      3349	    1200	    57.871
  32.420	      3205	    1200	    56.613
  32.440	      3048	    1200	    55.209
  32.460	      2668	    1200	    51.653
  32.480	      2330	    1200	    48.270
  32.500	      1985	    1200	    44.553
  32.520	      1649	    1200	    40.608
  32.540	      1375	    1200	    37.081
  32.560	      1109	    1200	    33.302
  32.580	       855	    1200	    29.240
  32.600	       680	    1200	    26.077
  32.620	       530	    1200	    23.022
  32.640	       433	    1200	    20.809
  32.660	       345	    1200	    18.574
  32.680	       297	    1200	    17.234
  32.700	       243	    1200	    15.588
  32.720	       227	    1200	    15.067
  32.740	       180	    1200	    13.416
  32.760	       172	    1200	    13.115
  32.780	       196	    1200	    14.000
  32.800	       133	    1200	    11.533
  32.820	       128	    1200	    11.314
  32.840	       119	    1200	    10.909
  32.860	       117	    1200	    10.817
  32.880	        96	    1200	     9.798
  32.900	       100	    1200	    10.000
  32.920	       102	    1200	    10.100
  32.940	        92	    1200	     9.592
  32.960	       108	    1200	    10.392
  32.980	        75	    1200	     8.660
  33.000	        84	    1200	     9.165
  33.020	        82	    1200	     9.055
  33.040	        84	    1200	     9.165
  33.060	        88	    1200	     9.381
  33.080	        86	    1200	     9.274
  33.100	        78	    1200	     8.832
  33.120	        84	    1200	     9.165
  33.140	        63	    1200	     7.937
  33.160	        64	    1200	     8.000
  33.180	        60	    1200	     7.746
  33.200	        81	    1200	     9.000
  33.220	        61	    1200	     7.810
  33.240	        72	    1200	     8.485
  33.260	        75	    1200	     8.660
  33.280	        70	    1200	     8.367
  33.300	        62	    1200	     7.874
  33.320	        67	    1200	     8.185
  33.340	        75	    1200	     8.660
  33.360	        62	    1200	     7.874
  33.380	        65	    1200	     8.062
  33.400	        57	    1200	     7.550
  33.420	        64	    1200	     8.000
  33.440	        42	    1200	     6.481
  33.460	        55	    1200	     7.416
  33.480	        49	    1200	     7.000
  33.500	        70	    1200	     8.367
  33.520	        45	    1200	     6.708
  33.540	        64	    1200	     8.000
  33.560	        49	    1200	     7.000
  33.580	        63	    1200	     7.937
  33.600	        56	    1200	     7.483
  33.620	        51	    1200	     7.141
  33.640	        57	    1200	     7.550
  33.660	        57	    1200	     7.550
  33.680	        52	    1200	     7.211
  33.700	        46	    1200	     6.782
  33.720	        57	    1200	     7.550
  33.740	        59	    1200	     7.681
  33.760	        61	    1200	     7.810
  33.780	        37	    1200	     6.083
  33.800	        51	    1200	     7.141
  33.820	        53	    1200	     7.280
  33.840	        40	    1200	     6.325
  33.860	        41	    1200	     6.403
  33.880	        57	    1200	     7.550
  33.900	        56	    1200	     7.483
  33.920	        50	    1200	     7.071
  33.940	        38	    1200	     6.164
  33.960	        54	    1200	     7.348
  33.980	        44	    1200	     6.633
  34.000	        42	    1200	     6.481
  34.020	        42	    1200	     6.481
  34.040	        41	    1200	     6.403
  34.060	        60	    1200	     7.746
  34.080	        31	    1200	     5.568
  34.100	        53	    1200	     7.280
  34.120	        59	    1200	     7.681
  34.140	        53	    1200	     7.280
  34.160	        38	    1200	     6.164
  34.180	        40	    1200	     6.325
  34.200	        38	    1200	     6.164
  34.220	        43	    1200	     6.557
  34.240	        50	    1200	     7.071
  34.260	        37	    1200	     6.083
  34.280	        42	    1200	     6.481
  34.300	        50	    1200	     7.071
  34.320	        36	    1200	     6.000
  34.340	        33	    1200	     5.745
  34.360	        40	    1200	     6.325
  34.380	        51	    1200	     7.141
  34.400	        38	    1200	     6.164
  34.420	        59	    1200	     7.681
  34.440	        48	    1200	     6.928
  34.460	        44	    1200	     6.633
  34.480	        47	    1200	     6.856
  34.500	        33	    1200	     5.745
  34.520	        40	    1200	     6.325
  34.540	        40	    1200	     6.325
  34.560	        42	    1200	     6.481
  34.580	        47	    1200	     6.856
  34.600	        39	    1200	     6.245
  34.620	        39	    1200	     6.245
  34.640	        45	    1200	     6.708
  34.660	        33	    1200	     5.745
  34.680	        41	    1200	     6.403
  34.700	        33	    1200	     5.745
  34.720	        34	    1200	     5.831
  34.740	        47	    1200	     6.856
  34.760	        43	    1200	     6.557
  34.780	        31	    1200	     5.568
  34.800	        31	    1200	     5.568
  34.820	        48	    1200	     6.928
  34.840	        40	    1200	     6.325
  34.860	        41	    1200	     6.403
  34.880	        43	    1200	     6.557
  34.900	        39	    1200	     6.245
  34.920	        34	    1200	     5.831
  34.940	        36	    1200	     6.000
  34.960	        33	    1200	     5.745
  34.980	        31	    1200	     5.568
  35.000	        28	    1200	     5.292
  35.020	        30	    1200	     5.477
  35.040	        35	    1200	     5.916
  35.060	        48	    1200	     6.928
  35.080	        39	    1200	     6.245
  35.100	        32	    1200	     5.657
  35.120	        36	    1200	     6.000
  35.140	        23	    1200	     4.796
  35.160	        56	    1200	     7.483
  35.180	        36	    1200	     6.000
  35.200	        42	    1200	     6.481
  35.220	        35	    1200	     5.916
  35.240	        30	    1200	     5.477
  35.260	        25	    1200	     5.000
  35.280	        34	    1200	     5.831
  35.300	        35	    1200	     5.916
  35.320	        44	    1200	     6.633
  35.340	        38	    1200	     6.164
  35.360	        31	    1200	     5.568
  35.380	        19	    1200	     4.359
  35.400	        34	    1200	     5.831
  35.420	        41	    1200	     6.403
  35.440	        40	    1200	     6.325
  35.460	        39	    1200	     6.245
  35.480	        38	    1200	     6.164
  35.500	        32	    1200	     5.657
  35.520	        37	    1200	     6.083
  35.540	        36	    1200	     6.000
  35.560	        46	    1200	     6.782
  35.580	        31	    1200	     5.568
  35.600	        40	    1200	     6.325
  35.620	        24	    1200	     4.899
  35.640	        41	    1200	     6.403
  35.660	        34	    1200	     5.831
  35.680	        36	    1200	     6.000
  35.700	        31	    1200	     5.568
  35.720	        31	    1200	     5.568
  35.740	        37	    1200	     6.083
  35.760	        30	    1200	     5.477
  35.780	        41	    1200	     6.403
  35.800	        31	    1200	     5.568
  35.820	        33	    1200	     5.745
  35.840	        27	    1200	     5.196
  35.860	        27	    1200	     5.196
  35.880	        40	    1200	     6.325
  35.900	        31	    1200	     5.568
  35.920	        29	    1200	     5.385
  35.940	        25	    1200	     5.000
  35.960	        34	    1200	     5.831
  35.980	        29	    1200	     5.385
  36.000	        44	    1200	     6.633
  36.020	        36	    1200	     6.000
  36.040	        31	    1200	     5.568
  36.060	        32	    1200	     5.657
  36.080	        37	    1200	     6.083
  36.100	        26	    1200	     5.099
  36.120	        31	    1200	     5.568
  36.140	        30	    1200	     5.477
  36.160	        23	    1200	     4.796
  36.180	        24	    1200	     4.899
  36.200	        34	    1200	     5.831
  36.220	        25	    1200	     5.000
  36.240	        25	    1200	     5.000
  36.260	        29	    1200	     5.385
  36.280	        31	    1200	     5.568
  36.300	        22	    1200	     4.690
  36.320	        26	    1200	     5.099
  36.340	        24	    1200	     4.899
  36.360	        36	    1200	     6.000
  36.380	        21	    1200	     4.583
  36.400	        33	    1200	     5.745
  36.420	        27	    1200	     5.196
  36.440	        30	    1200	     5.477
  36.460	        37	    1200	     6.083
  36.480	        32	    1200	     5.657
  36.500	        33	    1200	     5.745
  36.520	        27	    1200	     5.196
  36.540	        40	    1200	     6.325
  36.560	        24	    1200	     4.899
  36.580	        48	    1200	     6.928
  36.600	        42	    1200	     6.481
  36.620	        37	    1200	     6.083
  36.640	        28	    1200	     5.292
  36.660	        23	    1200	     4.796
  36.680	        32	    1200	     5.657
  36.700	        31	    1200	     5.568
  36.720	        20	    1200	     4.472
  36.740	        24	    1200	     4.899
  36.760	        35	    1200	     5.916
  36.780	        34	    1200	     5.831
  36.800	        28	    1200	     5.292
  36.820	        35	    1200	     5.916
  36.840	        21	    1200	     4.583
  36.860	        33	    1200	     5.745
  36.880	        28	    1200	     5.292
  36.900	        34	    1200	     5.831
  36.920	        21	    1200	     4.583
  36.940	        31	    1200	     5.568
  36.960	        37	    1200	     6.083
  36.980	        30	    1200	     5.477
  37.000	        22	    1200	     4.690
  37.020	        31	    1200	     5.568
  37.040	        32	    1200	     5.657
  37.060	        26	    1200	     5.099
  37.080	        28	    1200	     5.292
  37.100	        26	    1200	     5.099
  37.120	        24	    1200	     4.899
  37.140	        18	    1200	     4.243
  37.160	        26	    1200	     5.099
  37.180	        26	    1200	     5.099
  37.200	        21	    1200	     4.583
  37.220	        18	    1200	     4.243
  37.240	        35	    1200	     5.916
  37.260	        33	    1200	     5.745
  37.280	        27	    1200	     5.196
  37.300	        27	    1200	     5.196
  37.320	        28	    1200	     5.292
  37.340	        42	    1200	     6.481
  37.360	        33	    1200	     5.745
  37.380	        36	    1200	     6.000
  37.400	        29	    1200	     5.385
  37.420	        48	    1200	     6.928
  37.440	        31	    1200	     5.568
  37.460	        41	    1200	     6.403
  37.480	        31	    1200	     5.568
  37.500	        23	    1200	     4.796
  37.520	        30	    1200	     5.477
  37.540	        28	    1200	     5.292
  37.560	        24	    1200	     4.899
  37.580	        25	    1200	     5.000
  37.600	        30	    1200	     5.477
  37.620	        34	    1200	     5.831
  37.640	        23	    1200	     4.796
  37.660	        37	    1200	     6.083
  37.680	        34	    1200	     5.831
  37.700	        20	    1200	     4.472
  37.720	        30	    1200	     5.477
  37.740	        22	    1200	     4.690
  37.760	        27	    1200	     5.196
  37.780	        17	    1200	     4.123
  37.800	        19	    1200	     4.359
  37.820	        27	    1200	     5.196
  37.840	        27	    1200	     5.196
  37.860	        32	    1200	     5.657
  37.880	        24	    1200	     4.899
  37.900	        40	    1200	     6.325
  37.920	        19	    1200	     4.359
  37.940	        26	    1200	     5.099
  37.960	        29	    1200	     5.385
  37.980	        26	    1200	     5.099
  38.000	        42	    1200	     6.481
  38.020	        24	    1200	     4.899
  38.040	        37	    1200	     6.083
  38.060	        32	    1200	     5.657
  38.080	        35	    1200	     5.916
  38.100	        28	    1200	     5.292
  38.120	        29	    1200	     5.385
  38.140	        28	    1200	     5.292
  38.160	        28	    1200	     5.292
  38.180	        21	    1200	     4.583
  38.200	        24	    1200	     4.899
  38.220	        24	    1200	     4.899
  38.240	        30	    1200	     5.477
  38.260	        14	    1200	     3.742
  38.280	        37	    1200	     6.083
  38.300	        31	    1200	     5.568
  38.320	        33	    1200	     5.745
  38.340	        30	    1200	     5.477
  38.360	        29	    1200	     5.385
  38.380	        37	    1200	     6.083
  38.400	        20	    1200	     4.472
  38.420	        27	    1200	     5.196
  38.440	        22	    1200	     4.690
  38.460	        32	    1200	     5.657
  38.480	        41	    1200	     6.403
  38.500	        26	    1200	     5.099
  38.520	        27	    1200	     5.196
  38.540	        35	    1200	     5.916
  38.560	        29	    1200	     5.385
  38.580	        20	    1200	     4.472
  38.600	        19	    1200	     4.359
  38.620	        28	    1200	     5.292
  38.640	        26	    1200	     5.099
  38.660	        24	    1200	     4.899
  38.680	        28	    1200	     5.292
  38.700	        35	    1200	     5.916
  38.720	        26	    1200	     5.099
  38.740	        34	    1200	     5.831
  38.760	        35	    1200	     5.916
  38.780	        33	    1200	     5.745
  38.800	        26	    1200	     5.099
  38.820	        27	    1200	     5.196
  38.840	        34	    1200	     5.831
  38.860	        34	    1200	     5.831
  38.880	        25	    1200	     5.000
  38.900	        26	    1200	     5.099
  38.920	        35	    1200	     5.916
  38.940	        35	    1200	     5.916
  38.960	        27	    1200	     5.196
  38.980	        30	    1200	     5.477
  39.000	        21	    1200	     4.583
  39.020	        37	    1200	     6.083
  39.040	        36	    1200	     6.000
  39.060	        24	    1200	     4.899
  39.080	        32	    1200	     5.657
  39.100	        28	    1200	     5.292
  39.120	        28	    1200	     5.292
  39.140	        33	    1200	     5.745
  39.160	        29	    1200	     5.385
  39.180	        42	    1200	     6.481
  39.200	        42	    1200	     6.481
  39.220	        25	    1200	     5.000
  39.240	        31	    1200	     5.568
  39.260	        29	    1200	     5.385
  39.280	        28	    1200	     5.292
  39.300	        38	    1200	     6.164
  39.320	        26	    1200	     5.099
  39.340	        32	    1200	     5.657
  39.360	        37	    1200	     6.083
  39.380	        45	    1200	     6.708
  39.400	        46	    1200	     6.782
  39.420	        39	    1200	     6.245
  39.440	        52	    1200	     7.211
  39.460	        59	    1200	     7.681
  39.480	        44	    1200	     6.633
  39.500	        34	    1200	     5.831
  39.520	        48	    1200	     6.928
  39.540	        52	    1200	     7.211
  39.560	        51	    1200	     7.141
  39.580	        67	    1200	     8.185
  39.600	        75	    1200	     8.660
  39.620	        74	    1200	     8.602
  39.640	        94	    1200	     9.695
  39.660	       132	    1200	    11.489
  39.680	       123	    1200	    11.091
  39.700	       158	    1200	    12.570
  39.720	       153	    1200	    12.369
  39.740	       178	    1200	    13.342
  39.760	       205	    1200	    14.318
  39.780	       241	    1200	    15.524
  39.800	       228	    1200	    15.100
  39.820	       310	    1200	    17.607
  39.840	       295	    1200	    17.176
  39.860	       312	    1200	    17.664
  39.880	       377	    1200	    19.416
  39.900	       405	    1200	    20.125
  39.920	       458	    1200	    21.401
  39.940	       485	    1200	    22.023
  39.960	       504	    1200	    22.450
  39.980	       542	    1200	    23.281
  40.000	       536	    1200	    23.152
  40.020	       566	    1200	    23.791
  40.040	       492	    1200	    22.181
  40.060	       507	    1200	    22.517
  40.080	       457	    1200	    21.378
  40.100	       403	    1200	    20.075
  40.120	       374	    1200	    19.339
  40.140	       285	    1200	    16.882
  40.160	       249	    1200	    15.780
  40.180	       213	    1200	    14.595
  40.200	       165	    1200	    12.845
  40.220	       152	    1200	    12.329
  40.240	       140	    1200	    11.832
  40.260	       117	    1200	    10.817
  40.280	        79	    1200	     8.888
  40.300	        74	    1200	     8.602
  40.320	        74	    1200	     8.602
  40.340	        63	    1200	     7.937
  40.360	        47	    1200	     6.856
  40.380	        42	    1200	     6.481
  40.400	        45	    1200	     6.708
  40.420	        40	    1200	     6.325
  40.440	        38	    1200	     6.164
  40.460	        46	    1200	     6.782
  40.480	        35	    1200	     5.916
  40.500	        40	    1200	     6.325
  40.520	        32	    1200	     5.657
  40.540	        32	    1200	     5.657
  40.560	        31	    1200	     5.568
  40.580	        40	    1200	     6.325
  40.600	        33	    1200	     5.745
  40.620	        40	    1200	     6.325
  40.640	        35	    1200	     5.916
  40.660	        37	    1200	     6.083
  40.680	        31	    1200	     5.568
  40.700	        30	    1200	     5.477
  40.720	        28	    1200	     5.292
  40.740	        34	    1200	     5.831
  40.760	        33	    1200	     5.745
  40.780	        33	    1200	     5.745
  40.800	        35	    1200	     5.916
  40.820	        17	    1200	     4.123
  40.840	        30	    1200	     5.477
  40.860	        36	    1200	     6.000
  40.880	        20	    1200	     4.472
  40.900	        26	    1200	     5.099
  40.920	        24	    1200	     4.899
  40.940	        26	    1200	     5.099
  40.960	        22	    1200	     4.690
  40.980	        32	    1200	     5.657
  41.000	        29	    1200	     5.385
  41.020	        26	    1200	     5.099
  41.040	        33	    1200	     5.745
  41.060	        31	    1200	     5.568
  41.080	        22	    1200	     4.690
  41.100	        23	    1200	     4.796
  41.120	        27	    1200	     5.196
  41.140	        29	    1200	     5.385
  41.160	        26	    1200	     5.099
  41.180	        16	    1200	     4.000
  41.200	        37	    1200	     6.083
  41.220	        26	    1200	     5.099
  41.240	        27	    1200	     5.196
  41.260	        33	    1200	     5.745
  41.280	        32	    1200	     5.657
  41.300	        22	    1200	     4.690
  41.320	        27	    1200	     5.196
  41.340	        24	    1200	     4.899
  41.360	        30	    1200	     5.477
  41.380	        34	    1200	     5.831
  41.400	        25	    1200	     5.000
  41.420	        37	    1200	     6.083
  41.440	        31	    1200	     5.568
  41.460	        26	    1200	     5.099
  41.480	        35	    1200	     5.916
  41.500	        20	    1200	     4.472
  41.520	        25	    1200	     5.000
  41.540	        22	    1200	     4.690
  41.560	        37	    1200	     6.083
  41.580	        21	    1200	     4.583
  41.600	        34	    1200	     5.831
  41.620	        24	    1200	     4.899
  41.640	        20	    1200	     4.472
  41.660	        29	    1200	     5.385
  41.680	        30	    1200	     5.477
  41.700	        35	    1200	     5.916
  41.720	        29	    1200	     5.385
  41.740	        25	    1200	     5.000
  41.760	        25	    1200	     5.000
  41.780	        22	    1200	     4.690
  41.800	        21	    1200	     4.583
  41.820	        25	    1200	     5.000
  41.840	        17	    1200	     4.123
  41.860	        32	    1200	     5.657
  41.880	        23	    1200	     4.796
  41.900	        27	    1200	     5.196
  41.920	        36	    1200	     6.000
  41.940	        32	    1200	     5.657
  41.960	        20	    1200	     4.472
  41.980	        17	    1200	     4.123
  42.000	        27	    1200	     5.196
  42.020	        35	    1200	     5.916
  42.040	        26	    1200	     5.099
  42.060	        23	    1200	     4.796
  42.080	        29	    1200	     5.385
  42.100	        26	    1200	     5.099
  42.120	        22	    1200	     4.690
  42.140	        25	    1200	     5.000
  42.160	        32	    1200	     5.657
  42.180	        22	    1200	     4.690
  42.200	        34	    1200	     5.831
  42.220	        20	    1200	     4.472
  42.240	        32	    1200	     5.657
  42.260	        30	    1200	     5.477
  42.280	        22	    1200	     4.690
  42.300	        27	    1200	     5.196
  42.320	        20	    1200	     4.472
  42.340	        24	    1200	     4.899
  42.360	        20	    1200	     4.472
  42.380	        32	    1200	     5.657
  42.400	        16	    1200	     4.000
  42.420	        19	    1200	     4.359
  42.440	        20	    1200	     4.472
  42.460	        28	    1200	     5.292
  42.480	        32	    1200	     5.657
  42.500	        14	    1200	     3.742
  42.520	        34	    1200	     5.831
  42.540	        23	    1200	     4.796
  42.560	        25	    1200	     5.000
  42.580	        26	    1200	     5.099
  42.600	        30	    1200	     5.477
  42.620	        26	    1200	     5.099
  42.640	        19	    1200	     4.359
  42.660	        18	    1200	     4.243
  42.680	        34	    1200	     5.831
  42.700	        22	    1200	     4.690
  42.720	        20	    1200	     4.472
  42.740	        25	    1200	     5.000
  42.760	        27	    1200	     5.196
  42.780	        20	    1200	     4.472
  42.800	        23	    1200	     4.796
  42.820	        26	    1200	     5.099
  42.840	        21	    1200	     4.583
  42.860	        30	    1200	     5.477
  42.880	        16	    1200	     4.000
  42.900	        32	    1200	     5.657
  42.920	        20	    1200	     4.472
  42.940	        28	    1200	     5.292
  42.960	        28	    1200	     5.292
  42.980	        23	    1200	     4.796
  43.000	        21	    1200	     4.583
  43.020	        29	    1200	     5.385
  43.040	        28	    1200	     5.292
  43.060	        22	    1200	     4.690
  43.080	        21	    1200	     4.583
  43.100	        32	    1200	     5.657
  43.120	        27	    1200	     5.196
  43.140	        33	    1200	     5.745
  43.160	        28	    1200	     5.292
  43.180	        37	    1200	     6.083
  43.200	        20	    1200	     4.472
  43.220	        21	    1200	     4.583
  43.240	        18	    1200	     4.243
  43.260	        25	    1200	     5.000
  43.280	        16	    1200	     4.000
  43.300	        26	    1200	     5.099
  43.320	        30	    1200	     5.477
  43.340	        21	    1200	     4.583
  43.360	        23	    1200	     4.796
  43.380	        24	    1200	     4.899
  43.400	        30	    1200	     5.477
  43.420	        19	    1200	     4.359
  43.440	        18	    1200	     4.243
  43.460	        23	    1200	     4.796
  43.480	        21	    1200	     4.583
  43.500	        25	    1200	     5.000
  43.520	        33	    1200	     5.745
  43.540	        18	    1200	     4.243
  43.560	        31	    1200	     5.568
  43.580	        32	    1200	     5.657
  43.600	        25	    1200	     5.000
  43.620	        19	    1200	     4.359
  43.640	        25	    1200	     5.000
  43.660	        35	    1200	     5.916
  43.680	        25	    1200	     5.000
  43.700	        18	    1200	     4.243
  43.720	        19	    1200	     4.359
  43.740	        42	    1200	     6.481
  43.760	        32	    1200	     5.657
  43.780	        24	    1200	     4.899
  43.800	        31	    1200	     5.568
  43.820	        27	    1200	     5.196
  43.840	        27	    1200	     5.196
  43.860	        27	    1200	     5.196
  43.880	        26	    1200	     5.099
  43.900	        28	    1200	     5.292
  43.920	        22	    1200	     4.690
  43.940	        26	    1200	     5.099
  43.960	        31	    1200	     5.568
  43.980	        23	    1200	     4.796
  44.000	        32	    1200	     5.657
  44.020	        16	    1200	     4.000
  44.040	        27	    1200	     5.196
  44.060	        28	    1200	     5.292
  44.080	        18	    1200	     4.243
  44.100	        18	    1200	     4.243
  44.120	        27	    1200	     5.196
  44.140	        25	    1200	     5.000
  44.160	        32	    1200	     5.657
  44.180	        27	    1200	     5.196
  44.200	        21	    1200	     4.583
  44.220	        29	    1200	     5.385
  44.240	        27	    1200	     5.196
  44.260	        30	    1200	     5.477
  44.280	        32	    1200	     5.657
  44.300	        25	    1200	     5.000
  44.320	        30	    1200	     5.477
  44.340	        31	    1200	     5.568
  44.360	        28	    1200	     5.292
  44.380	        28	    1200	     5.292
  44.400	        25	    1200	     5.000
  44.420	        37	    1200	     6.083
  44.440	        36	    1200	     6.000
  44.460	        32	    1200	     5.657
  44.480	        34	    1200	     5.831
  44.500	        28	    1200	     5.292
  44.520	        24	    1200	     4.899
  44.540	        26	    1200	     5.099
  44.560	        30	    1200	     5.477
  44.580	        29	    1200	     5.385
  44.600	        27	    1200	     5.196
  44.620	        31	    1200	     5.568
  44.640	        22	    1200	     4.690
  44.660	        29	    1200	     5.385
  44.680	        32	    1200	     5.657
  44.700	        27	    1200	     5.196
  44.720	        26	    1200	     5.099
  44.740	        22	    1200	     4.690
  44.760	        31	    1200	     5.568
  44.780	        29	    1200	     5.385
  44.800	        22	    1200	     4.690
  44.820	        23	    1200	     4.796
  44.840	        33	    1200	     5.745
  44.860	        23	    1200	     4.796
  44.880	        30	    1200	     5.477
  44.900	        40	    1200	     6.325
  44.920	        33	    1200	     5.745
  44.940	        29	    1200	     5.385
  44.960	        22	    1200	     4.690
  44.980	        28	    1200	     5.292
  45.000	        27	    1200	     5.196
  45.020	        30	    1200	     5.477
  45.040	        23	    1200	     4.796
  45.060	        34	    1200	     5.831
  45.080	        33	    1200	     5.745
  45.100	        30	    1200	     5.477
  45.120	        31	    1200	     5.568
  45.140	        24	    1200	     4.899
  45.160	        29	    1200	     5.385
  45.180	        29	    1200	     5.385
  45.200	        33	    1200	     5.745
  45.220	        28	    1200	     5.292
  45.240	        25	    1200	     5.000
  45.260	        27	    1200	     5.196
  45.280	        23	    1200	     4.796
  45.300	        28	    1200	     5.292
  45.320	        41	    1200	     6.403
  45.340	        34	    1200	     5.831
  45.360	        35	    1200	     5.916
  45.380	        41	    1200	     6.403
  45.400	        18	    1200	     4.243
  45.420	        34	    1200	     5.831
  45.440	        27	    1200	     5.196
  45.460	        24	    1200	     4.899
  45.480	        30	    1200	     5.477
  45.500	        46	    1200	     6.782
  45.520	        27	    1200	     5.196
  45.540	        35	    1200	     5.916
  45.560	        28	    1200	     5.292
  45.580	        35	    1200	     5.916
  45.600	        42	    1200	     6.481
  45.620	        36	    1200	     6.000
  45.640	        39	    1200	     6.245
  45.660	        44	    1200	     6.633
  45.680	        33	    1200	     5.745
  45.700	        33	    1200	     5.745
  45.720	        44	    1200	     6.633
  45.740	        39	    1200	     6.245
  45.760	        41	    1200	     6.403
  45.780	        38	    1200	     6.164
  45.800	        46	    1200	     6.782
  45.820	        44	    1200	     6.633
  45.840	        49	    1200	     7.000
  45.860	        61	    1200	     7.810
  45.880	        55	    1200	     7.416
  45.900	        60	    1200	     7.746
  45.920	        54	    1200	     7.348
  45.940	        56	    1200	     7.483
  45.960	        58	    1200	     7.616
  45.980	        70	    1200	     8.367
  46.000	        74	    1200	     8.602
  46.020	        85	    1200	     9.220
  46.040	        92	    1200	     9.592
  46.060	        99	    1200	     9.950
  46.080	       110	    1200	    10.488
  46.100	        98	    1200	     9.899
  46.120	       134	    1200	    11.576
  46.140	       160	    1200	    12.649
  46.160	       185	    1200	    13.601
  46.180	       238	    1200	    15.427
  46.200	       256	    1200	    16.000
  46.220	       295	    1200	    17.176
  46.240	       330	    1200	    18.166
  46.260	       342	    1200	    18.493
  46.280	       338	    1200	    18.385
  46.300	       434	    1200	    20.833
  46.320	       445	    1200	    21.095
  46.340	       487	    1200	    22.068
  46.360	       531	    1200	    23.043
  46.380	       579	    1200	    24.062
  46.400	       646	    1200	    25.417
  46.420	       686	    1200	    26.192
  46.440	       750	    1200	    27.386
  46.460	       906	    1200	    30.100
  46.480	       986	    1200	    31.401
  46.500	      1065	    1200	    32.634
  46.520	      1114	    1200	    33.377
  46.540	      1150	    1200	    33.912
  46.560	      1088	    1200	    32.985
  46.580	      1155	    1200	    33.985
  46.600	      1103	    1200	    33.211
  46.620	      1029	    1200	    32.078
  46.640	       934	    1200	    30.561
  46.660	       915	    1200	    30.249
  46.680	       799	    1200	    28.267
  46.700	       721	    1200	    26.851
  46.720	       665	    1200	    25.788
  46.740	       586	    1200	    24.207
  46.760	       478	    1200	    21.863
  46.780	       420	    1200	    20.494
  46.800	       351	    1200	    18.735
  46.820	       312	    1200	    17.664
  46.840	       270	    1200	    16.432
  46.860	       214	    1200	    14.629
  46.880	       196	    1200	    14.000
  46.900	       172	    1200	    13.115
  46.920	       171	    1200	    13.077
  46.940	       131	    1200	    11.446
  46.960	       120	    1200	    10.954
  46.980	       115	    1200	    10.724
  47.000	        92	    1200	     9.592
  47.020	        99	    1200	     9.950
  47.040	        73	    1200	     8.544
  47.060	        85	    1200	     9.220
  47.080	        66	    1200	     8.124
  47.100	        84	    1200	     9.165
  47.120	        66	    1200	     8.124
  47.140	        62	    1200	     7.874
  47.160	        59	    1200	     7.681
  47.180	        53	    1200	     7.280
  47.200	        53	    1200	     7.280
  47.220	        45	    1200	     6.708
  47.240	        57	    1200	     7.550
  47.260	        45	    1200	     6.708
  47.280	        49	    1200	     7.000
  47.300	        47	    1200	     6.856
  47.320	        39	    1200	     6.245
  47.340	        44	    1200	     6.633
  47.360	        54	    1200	     7.348
  47.380	        36	    1200	     6.000
  47.400	        38	    1200	     6.164
  47.420	        38	    1200	     6.164
  47.440	        32	    1200	     5.657
  47.460	        34	    1200	     5.831
  47.480	        33	    1200	     5.745
  47.500	        32	    1200	     5.657
  47.520	        42	    1200	     6.481
  47.540	        33	    1200	     5.745
  47.560	        33	    1200	     5.745
  47.580	        28	    1200	     5.292
  47.600	        25	    1200	     5.000
  47.620	        34	    1200	     5.831
  47.640	        32	    1200	     5.657
  47.660	        44	    1200	     6.633
  47.680	        36	    1200	     6.000
  47.700	        26	    1200	     5.099
  47.720	        29	    1200	     5.385
  47.740	        27	    1200	     5.196
  47.760	        33	    1200	     5.745
  47.780	        37	    1200	     6.083
  47.800	        24	    1200	     4.899
  47.820	        28	    1200	     5.292
  47.840	        30	    1200	     5.477
  47.860	        41	    1200	     6.403
  47.880	        43	    1200	     6.557
  47.900	        34	    1200	     5.831
  47.920	        29	    1200	     5.385
  47.940	        31	    1200	     5.568
  47.960	        26	    1200	     5.099
  47.980	        29	    1200	     5.385
  48.000	        27	    1200	     5.196
  48.020	        34	    1200	     5.831
  48.040	        29	    1200	     5.385
  48.060	        29	    1200	     5.385
  48.080	        32	    1200	     5.657
  48.100	        19	    1200	     4.359
  48.120	        36	    1200	     6.000
  48.140	        35	    1200	     5.916
  48.160	        27	    1200	     5.196
  48.180	        32	    1200	     5.657
  48.200	        23	    1200	     4.796
  48.220	        29	    1200	     5.385
  48.240	        28	    1200	     5.292
  48.260	        22	    1200	     4.690
  48.280	        17	    1200	     4.123
  48.300	        36	    1200	     6.000
  48.320	        22	    1200	     4.690
  48.340	        24	    1200	     4.899
  48.360	        32	    1200	     5.657
  48.380	        33	    1200	     5.745
  48.400	        24	    1200	     4.899
  48.420	        31	    1200	     5.568
  48.440	        25	    1200	     5.000
  48.460	        19	    1200	     4.359
  48.480	        24	    1200	     4.899
  48.500	        19	    1200	     4.359
  48.520	        24	    1200	     4.899
  48.540	        31	    1200	     5.568
  48.560	        38	    1200	     6.164
  48.580	        24	    1200	     4.899
  48.600	        22	    1200	     4.690
  48.620	        34	    1200	     5.831
  48.640	        16	    1200	     4.000
  48.660	        19	    1200	     4.359
  48.680	        26	    1200	     5.099
  48.700	        34	    1200	     5.831
  48.720	        23	    1200	     4.796
  48.740	        27	    1200	     5.196
  48.760	        26	    1200	     5.099
  48.780	        33	    1200	     5.745
  48.800	        25	    1200	     5.000
  48.820	        32	    1200	     5.657
  48.840	        31	    1200	     5.568
  48.860	        18	    1200	     4.243
  48.880	        22	    1200	     4.690
  48.900	        12	    1200	     3.464
  48.920	        25	    1200	     5.000
  48.940	        20	    1200	     4.472
  48.960	        27	    1200	     5.196
  48.980	        23	    1200	     4.796
  49.000	        23	    1200	     4.796
  49.020	        24	    1200	     4.899
  49.040	        27	    1200	     5.196
  49.060	        24	    1200	     4.899
  49.080	        19	    1200	     4.359
  49.100	        19	    1200	     4.359
  49.120	        26	    1200	     5.099
  49.140	        17	    1200	     4.123
  49.160	        29	    1200	     5.385
  49.180	        29	    1200	     5.385
  49.200	        22	    1200	     4.690
  49.220	        22	    1200	     4.690
  49.240	        35	    1200	     5.916
  49.260	        29	    1200	     5.385
  49.280	        25	    1200	     5.000
  49.300	        24	    1200	     4.899
  49.320	        23	    1200	     4.796
  49.340	        21	    1200	     4.583
  49.360	        27	    1200	     5.196
  49.380	        37	    1200	     6.083
  49.400	        31	    1200	     5.568
  49.420	        24	    1200	     4.899
  49.440	        24	    1200	     4.899
  49.460	        16	    1200	     4.000
  49.480	        16	    1200	     4.000
  49.500	        23	    1200	     4.796
  49.520	        22	    1200	     4.690
  49.540	        22	    1200	     4.690
  49.560	        25	    1200	     5.000
  49.580	        24	    1200	     4.899
  49.600	        22	    1200	     4.690
  49.620	        26	    1200	     5.099
  49.640	        29	    1200	     5.385
  49.660	        26	    1200	     5.099
  49.680	        23	    1200	     4.796
  49.700	        22	    1200	     4.690
  49.720	        21	    1200	     4.583
  49.740	        14	    1200	     3.742
  49.760	        20	    1200	     4.472
  49.780	        19	    1200	     4.359
  49.800	        28	    1200	     5.292
  49.820	        19	    1200	     4.359
  49.840	        24	    1200	     4.899
  49.860	        13	    1200	     3.606
  49.880	        24	    1200	     4.899
  49.900	        18	    1200	     4.243
  49.920	        26	    1200	     5.099
  49.940	        23	    1200	     4.796
  49.960	        33	    1200	     5.745
  49.980	        28	    1200	     5.292
  50.000	        19	    1200	     4.359
  50.020	        20	    1200	     4.472
  50.040	        29	    1200	     5.385
  50.060	        24	    1200	     4.899
  50.080	        13	    1200	     3.606
  50.100	        16	    1200	     4.000
  50.120	        29	    1200	     5.385
  50.140	        30	    1200	     5.477
  50.160	        21	    1200	     4.583
  50.180	        26	    1200	     5.099
  50.200	        26	    1200	     5.099
  50.220	        19	    1200	     4.359
  50.240	        21	    1200	     4.583
  50.260	        24	    1200	     4.899
  50.280	        24	    1200	     4.899
  50.300	        21	    1200	     4.583
  50.320	        23	    1200	     4.796
  50.340	        27	    1200	     5.196
  50.360	        23	    1200	     4.796
  50.380	        21	    1200	     4.583
  50.400	        27	    1200	     5.196
  50.420	        14	    1200	     3.742
  50.440	        18	    1200	     4.243
  50.460	        26	    1200	     5.099
  50.480	        18	    1200	     4.243
  50.500	        21	    1200	     4.583
  50.520	        24	    1200	     4.899
  50.540	        12	    1200	     3.464
  50.560	        28	    1200	     5.292
  50.580	        21	    1200	     4.583
  50.600	        23	    1200	     4.796
  50.620	        15	    1200	     3.873
  50.640	        19	    1200	     4.359
  50.660	        20	    1200	     4.472
  50.680	        18	    1200	     4.243
  50.700	        27	    1200	     5.196
  50.720	        19	    1200	     4.359
  50.740	        16	    1200	     4.000
  50.760	        21	    1200	     4.583
  50.780	        24	    1200	     4.899
  50.800	        18	    1200	     4.243
  50.820	        22	    1200	     4.690
  50.840	        24	    1200	     4.899
  50.860	        21	    1200	     4.583
  50.880	        20	    1200	     4.472
  50.900	        11	    1200	     3.317
  50.920	        26	    1200	     5.099
  50.940	        16	    1200	     4.000
  50.960	        21	    1200	     4.583
  50.980	        27	    1200	     5.196
  51.000	        23	    1200	     4.796
  51.020	        28	    1200	     5.292
  51.040	        24	    1200	     4.899
  51.060	        22	    1200	     4.690
  51.080	        22	    1200	     4.690
  51.100	        28	    1200	     5.292
  51.120	        28	    1200	     5.292
  51.140	        25	    1200	     5.000
  51.160	        26	    1200	     5.099
  51.180	        23	    1200	     4.796
  51.200	        20	    1200	     4.472
  51.220	        25	    1200	     5.000
  51.240	        18	    1200	     4.243
  51.260	        18	    1200	     4.243
  51.280	        15	    1200	     3.873
  51.300	        17	    1200	     4.123
  51.320	        18	    1200	     4.243
  51.340	        32	    1200	     5.657
  51.360	        20	    1200	     4.472
  51.380	        16	    1200	     4.000
  51.400	        27	    1200	     5.196
  51.420	        16	    1200	     4.000
  51.440	        22	    1200	     4.690
  51.460	        20	    1200	     4.472
  51.480	        29	    1200	     5.385
  51.500	        30	    1200	     5.477
  51.520	        16	    1200	     4.000
  51.540	        18	    1200	     4.243
  51.560	        26	    1200	     5.099
  51.580	        22	    1200	     4.690
  51.600	        21	    1200	     4.583
  51.620	        24	    1200	     4.899
  51.640	        29	    1200	     5.385
  51.660	        28	    1200	     5.292
  51.680	        17	    1200	     4.123
  51.700	        25	    1200	     5.000
  51.720	        23	    1200	     4.796
  51.740	        26	    1200	     5.099
  51.760	        30	    1200	     5.477
  51.780	        21	    1200	     4.583
  51.800	        23	    1200	     4.796
  51.820	        34	    1200	     5.831
  51.840	        29	    1200	     5.385
  51.860	        20	    1200	     4.472
  51.880	        22	    1200	     4.690
  51.900	        29	    1200	     5.385
  51.920	        25	    1200	     5.000
  51.940	        27	    1200	     5.196
  51.960	        13	    1200	     3.606
  51.980	        25	    1200	     5.000
  52.000	        17	    1200	     4.123
  52.020	        23	    1200	     4.796
  52.040	        41	    1200	     6.403
  52.060	        34	    1200	     5.831
  52.080	        34	    1200	     5.831
  52.100	        31	    1200	     5.568
  52.120	        38	    1200	     6.164
  52.140	        45	    1200	     6.708
  52.160	        45	    1200	     6.708
  52.180	        35	    1200	     5.916
  52.200	        49	    1200	     7.000
  52.220	        38	    1200	     6.164
  52.240	        44	    1200	     6.633
  52.260	        42	    1200	     6.481
  52.280	        40	    1200	     6.325
  52.300	        50	    1200	     7.071
  52.320	        39	    1200	     6.245
  52.340	        45	    1200	     6.708
  52.360	        51	    1200	     7.141
  52.380	        54	    1200	     7.348
  52.400	        58	    1200	     7.616
  52.420	        65	    1200	     8.062
  52.440	        70	    1200	     8.367
  52.460	        61	    1200	     7.810
  52.480	        53	    1200	     7.280
  52.500	        60	    1200	     7.746
  52.520	        72	    1200	     8.485
  52.540	        64	    1200	     8.000
  52.560	        53	    1200	     7.280
  52.580	        59	    1200	     7.681
  52.600	        66	    1200	     8.124
  52.620	        39	    1200	     6.245
  52.640	        41	    1200	     6.403
  52.660	        42	    1200	     6.481
  52.680	        38	    1200	     6.164
  52.700	        37	    1200	     6.083
  52.720	        31	    1200	     5.568
  52.740	        25	    1200	     5.000
  52.760	        29	    1200	     5.385
  52.780	        37	    1200	     6.083
  52.800	        29	    1200	     5.385
  52.820	        29	    1200	     5.385
  52.840	        38	    1200	     6.164
  52.860	        24	    1200	     4.899
  52.880	        17	    1200	     4.123
  52.900	        27	    1200	     5.196
  52.920	        29	    1200	     5.385
  52.940	        26	    1200	     5.099
  52.960	        25	    1200	     5.000
  52.980	        19	    1200	     4.359
  53.000	        24	    1200	     4.899
  53.020	        28	    1200	     5.292
  53.040	        28	    1200	     5.292
  53.060	        32	    1200	     5.657
  53.080	        32	    1200	     5.657
  53.100	        29	    1200	     5.385
  53.120	        26	    1200	     5.099
  53.140	        18	    1200	     4.243
  53.160	        20	    1200	     4.472
  53.180	        22	    1200	     4.690
  53.200	        20	    1200	     4.472
  53.220	        26	    1200	     5.099
  53.240	        35	    1200	     5.916
  53.260	        28	    1200	     5.292
  53.280	        24	    1200	     4.899
  53.300	        24	    1200	     4.899
  53.320	        19	    1200	     4.359
  53.340	        25	    1200	     5.000
  53.360	        18	    1200	     4.243
  53.380	        16	    1200	     4.000
  53.400	        20	    1200	     4.472
  53.420	        25	    1200	     5.000
  53.440	        22	    1200	     4.690
  53.460	        18	    1200	     4.243
  53.480	        21	    1200	     4.583
  53.500	        18	    1200	     4.243
  53.520	        31	    1200	     5.568
  53.540	        27	    1200	     5.196
  53.560	        18	    1200	     4.243
  53.580	        19	    1200	     4.359
  53.600	        28	    1200	     5.292
  53.620	        29	    1200	     5.385
  53.640	        19	    1200	     4.359
  53.660	        27	    1200	     5.196
  53.680	        17	    1200	     4.123
  53.700	        29	    1200	     5.385
  53.720	        16	    1200	     4.000
  53.740	        13	    1200	     3.606
  53.760	        19	    1200	     4.359
  53.780	        21	    1200	     4.583
  53.800	        23	    1200	     4.796
  53.820	        24	    1200	     4.899
  53.840	        17	    1200	     4.123
  53.860	        24	    1200	     4.899
  53.880	        23	    1200	     4.796
  53.900	        24	    1200	     4.899
  53.920	        19	    1200	     4.359
  53.940	        17	    1200	     4.123
  53.960	        18	    1200	     4.243
  53.980	        27	    1200	     5.196
  54.000	        26	    1200	     5.099
  54.020	        20	    1200	     4.472
  54.040	        17	    1200	     4.123
  54.060	        18	    1200	     4.243
  54.080	        17	    1200	     4.123
  54.100	        14	    1200	     3.742
  54.120	        23	    1200	     4.796
  54.140	        25	    1200	     5.000
  54.160	        24	    1200	     4.899
  54.180	        24	    1200	     4.899
  54.200	        19	    1200	     4.359
  54.220	        20	    1200	     4.472
  54.240	        20	    1200	     4.472
  54.260	        16	    1200	     4.000
  54.280	        20	    1200	     4.472
  54.300	        18	    1200	     4.243
  54.320	        21	    1200	     4.583
  54.340	        18	    1200	     4.243
  54.360	        30	    1200	     5.477
  54.380	        34	    1200	     5.831
  54.400	        22	    1200	     4.690
  54.420	        19	    1200	     4.359
  54.440	        16	    1200	     4.000
  54.460	        24	    1200	     4.899
  54.480	        22	    1200	     4.690
  54.500	        19	    1200	     4.359
  54.520	        21	    1200	     4.583
  54.540	        20	    1200	     4.472
  54.560	        25	    1200	     5.000
  54.580	        19	    1200	     4.359
  54.600	        19	    1200	     4.359
  54.620	        25	    1200	     5.000
  54.640	        33	    1200	     5.745
  54.660	        16	    1200	     4.000
  54.680	        18	    1200	     4.243
  54.700	        25	    1200	     5.000
  54.720	        19	    1200	     4.359
  54.740	        23	    1200	     4.796
  54.760	        14	    1200	     3.742
  54.780	        21	    1200	     4.583
  54.800	        16	    1200	     4.000
  54.820	        22	    1200	     4.690
  54.840	        28	    1200	     5.292
  54.860	        24	    1200	     4.899
  54.880	        32	    1200	     5.657
  54.900	        14	    1200	     3.742
  54.920	        31	    1200	     5.568
  54.940	        28	    1200	     5.292
  54.960	        26	    1200	     5.099
  54.980	        28	    1200	     5.292
  55.000	        24	    1200	     4.899
  55.020	        25	    1200	     5.000
  55.040	        20	    1200	     4.472
  55.060	        20	    1200	     4.472
  55.080	        19	    1200	     4.359
  55.100	        22	    1200	     4.690
  55.120	        28	    1200	     5.292
  55.140	        19	    1200	     4.359
  55.160	        22	    1200	     4.690
  55.180	        17	    1200	     4.123
  55.200	        34	    1200	     5.831
  55.220	        21	    1200	     4.583
  55.240	        20	    1200	     4.472
  55.260	        28	    1200	     5.292
  55.280	        16	    1200	     4.000
  55.300	        16	    1200	     4.000
  55.320	        29	    1200	     5.385
  55.340	        27	    1200	     5.196
  55.360	        34	    1200	     5.831
  55.380	        23	    1200	     4.796
  55.400	        22	    1200	     4.690
  55.420	        20	    1200	     4.472
  55.440	        30	    1200	     5.477
  55.460	        28	    1200	     5.292
  55.480	        12	    1200	     3.464
  55.500	        30	    1200	     5.477
  55.520	        21	    1200	     4.583
  55.540	        18	    1200	     4.243
  55.560	        30	    1200	     5.477
  55.580	        20	    1200	     4.472
  55.600	        27	    1200	     5.196
  55.620	        30	    1200	     5.477
  55.640	        21	    1200	     4.583
  55.660	        21	    1200	     4.583
  55.680	        29	    1200	     5.385
  55.700	        23	    1200	     4.796
  55.720	        24	    1200	     4.899
  55.740	        31	    1200	     5.568
  55.760	        22	    1200	     4.690
  55.780	        30	    1200	     5.477
  55.800	        36	    1200	     6.000
  55.820	        22	    1200	     4.690
  55.840	        16	    1200	     4.000
  55.860	        24	    1200	     4.899
  55.880	        24	    1200	     4.899
  55.900	        23	    1200	     4.796
  55.920	        21	    1200	     4.583
  55.940	        17	    1200	     4.123
  55.960	        33	    1200	     5.745
  55.980	        33	    1200	     5.745
  56.000	        23	    1200	     4.796
  56.020	        24	    1200	     4.899
  56.040	        24	    1200	     4.899
  56.060	        17	    1200	     4.123
  56.080	        22	    1200	     4.690
  56.100	        23	    1200	     4.796
  56.120	        25	    1200	     5.000
  56.140	        31	    1200	     5.568
  56.160	        28	    1200	     5.292
  56.180	        36	    1200	     6.000
  56.200	        30	    1200	     5.477
  56.220	        33	    1200	     5.745
  56.240	        24	    1200	     4.899
  56.260	        29	    1200	     5.385
  56.280	        22	    1200	     4.690
  56.300	        29	    1200	     5.385
  56.320	        28	    1200	     5.292
  56.340	        35	    1200	     5.916
  56.360	        27	    1200	     5.196
  56.380	        31	    1200	     5.568
  56.400	        37	    1200	     6.083
  56.420	        41	    1200	     6.403
  56.440	        30	    1200	     5.477
  56.460	        27	    1200	     5.196
  56.480	        26	    1200	     5.099
  56.500	        36	    1200	     6.000
  56.520	        29	    1200	     5.385
  56.540	        30	    1200	     5.477
  56.560	        34	    1200	     5.831
  56.580	        29	    1200	     5.385
  56.600	        26	    1200	     5.099
  56.620	        32	    1200	     5.657
  56.640	        36	    1200	     6.000
  56.660	        24	    1200	     4.899
  56.680	        29	    1200	     5.385
  56.700	        36	    1200	     6.000
  56.720	        22	    1200	     4.690
  56.740	        32	    1200	     5.657
  56.760	        31	    1200	     5.568
  56.780	        32	    1200	     5.657
  56.800	        35	    1200	     5.916
  56.820	        31	    1200	     5.568
  56.840	        30	    1200	     5.477
  56.860	        36	    1200	     6.000
  56.880	        28	    1200	     5.292
  56.900	        32	    1200	     5.657
  56.920	        44	    1200	     6.633
  56.940	        49	    1200	     7.000
  56.960	        28	    1200	     5.292
  56.980	        33	    1200	     5.745
  57.000	        33	    1200	     5.745
  57.020	        28	    1200	     5.292
  57.040	        40	    1200	     6.325
  57.060	        39	    1200	     6.245
  57.080	        39	    1200	     6.245
  57.100	        33	    1200	     5.745
  57.120	        40	    1200	     6.325
  57.140	        54	    1200	     7.348
  57.160	        49	    1200	     7.000
  57.180	        44	    1200	     6.633
  57.200	        50	    1200	     7.071
  57.220	        46	    1200	     6.782
  57.240	        64	    1200	     8.000
  57.260	        54	    1200	     7.348
  57.280	        59	    1200	     7.681
  57.300	        59	    1200	     7.681
  57.320	        78	    1200	     8.832
  57.340	        72	    1200	     8.485
  57.360	        78	    1200	     8.832
  57.380	       116	    1200	    10.770
  57.400	        93	    1200	     9.644
  57.420	       100	    1200	    10.000
  57.440	       116	    1200	    10.770
  57.460	       148	    1200	    12.166
  57.480	       169	    1200	    13.000
  57.500	       189	    1200	    13.748
  57.520	       207	    1200	    14.387
  57.540	       198	    1200	    14.071
  57.560	       268	    1200	    16.371
  57.580	       267	    1200	    16.340
  57.600	       303	    1200	    17.407
  57.620	       304	    1200	    17.436
  57.640	       336	    1200	    18.330
  57.660	       329	    1200	    18.138
  57.680	       351	    1200	    18.735
  57.700	       369	    1200	    19.209
  57.720	       402	    1200	    20.050
  57.740	       446	    1200	    21.119
  57.760	       455	    1200	    21.331
  57.780	       491	    1200	    22.159
  57.800	       601	    1200	    24.515
  57.820	       628	    1200	    25.060
  57.840	       646	    1200	    25.417
  57.860	       828	    1200	    28.775
  57.880	       865	    1200	    29.411
  57.900	       993	    1200	    31.512
  57.920	       941	    1200	    30.676
  57.940	      1010	    1200	    31.780
  57.960	       960	    1200	    30.984
  57.980	       936	    1200	    30.594
  58.000	       972	    1200	    31.177
  58.020	       918	    1200	    30.299
  58.040	       933	    1200	    30.545
  58.060	       910	    1200	    30.166
  58.080	       814	    1200	    28.531
  58.100	       738	    1200	    27.166
  58.120	       678	    1200	    26.038
  58.140	       591	    1200	    24.310
  58.160	       563	    1200	    23.728
  58.180	       499	    1200	    22.338
  58.200	       436	    1200	    20.881
  58.220	       380	    1200	    19.494
  58.240	       351	    1200	    18.735
  58.260	       295	    1200	    17.176
  58.280	       279	    1200	    16.703
  58.300	       233	    1200	    15.264
  58.320	       192	    1200	    13.856
  58.340	       171	    1200	    13.077
  58.360	       153	    1200	    12.369
  58.380	       147	    1200	    12.124
  58.400	       119	    1200	    10.909
  58.420	       121	    1200	    11.000
  58.440	        96	    1200	     9.798
  58.460	       105	    1200	    10.247
  58.480	        95	    1200	     9.747
  58.500	        86	    1200	     9.274
  58.520	        74	    1200	     8.602
  58.540	        67	    1200	     8.185
  58.560	        52	    1200	     7.211
  58.580	        64	    1200	     8.000
  58.600	        63	    1200	     7.937
  58.620	        54	    1200	     7.348
  58.640	        64	    1200	     8.000
  58.660	        65	    1200	     8.062
  58.680	        43	    1200	     6.557
  58.700	        47	    1200	     6.856
  58.720	        46	    1200	     6.782
  58.740	        44	    1200	     6.633
  58.760	        52	    1200	     7.211
  58.780	        41	    1200	     6.403
  58.800	        46	    1200	     6.782
  58.820	        35	    1200	     5.916
  58.840	        34	    1200	     5.831
  58.860	        46	    1200	     6.782
  58.880	        33	    1200	     5.745
  58.900	        41	    1200	     6.403
  58.920	        31	    1200	     5.568
  58.940	        46	    1200	     6.782
  58.960	        31	    1200	     5.568
  58.980	        33	    1200	     5.745
  59.000	        39	    1200	     6.245
  59.020	        41	    1200	     6.403
  59.040	        37	    1200	     6.083
  59.060	        36	    1200	     6.000
  59.080	        37	    1200	     6.083
  59.100	        32	    1200	     5.657
  59.120	        43	    1200	     6.557
  59.140	        27	    1200	     5.196
  59.160	        35	    1200	     5.916
  59.180	        40	    1200	     6.325
  59.200	        37	    1200	     6.083
  59.220	        26	    1200	     5.099
  59.240	        28	    1200	     5.292
  59.260	        30	    1200	     5.477
  59.280	        29	    1200	     5.385
  59.300	        34	    1200	     5.831
  59.320	        42	    1200	     6.481
  59.340	        28	    1200	     5.292
  59.360	        32	    1200	     5.657
  59.380	        37	    1200	     6.083
  59.400	        37	    1200	     6.083
  59.420	        32	    1200	     5.657
  59.440	        28	    1200	     5.292
  59.460	        43	    1200	     6.557
  59.480	        25	    1200	     5.000
  59.500	        36	    1200	     6.000
  59.520	        37	    1200	     6.083
  59.540	        17	    1200	     4.123
  59.560	        30	    1200	     5.477
  59.580	        26	    1200	     5.099
  59.600	        26	    1200	     5.099
  59.620	        22	    1200	     4.690
  59.640	        30	    1200	     5.477
  59.660	        21	    1200	     4.583
  59.680	        26	    1200	     5.099
  59.700	        36	    1200	     6.000
  59.720	        29	    1200	     5.385
  59.740	        26	    1200	     5.099
  59.760	        26	    1200	     5.099
  59.780	        29	    1200	     5.385
  59.800	        24	    1200	     4.899
  59.820	        24	    1200	     4.899
  59.840	        36	    1200	     6.000
  59.860	        28	    1200	     5.292
  59.880	        31	    1200	     5.568
  59.900	        26	    1200	     5.099
  59.920	        31	    1200	     5.568
  59.940	        22	    1200	     4.690
  59.960	        48	    1200	     6.928
  59.980	        25	    1200	     5.000
  60.000	        34	    1200	     5.831
  60.020	        31	    1200	     5.568
  60.040	        32	    1200	     5.657
  60.060	        32	    1200	     5.657
  60.080	        23	    1200	     4.796
  60.100	        20	    1200	     4.472
  60.120	        31	    1200	     5.568
  60.140	        30	    1200	     5.477
  60.160	        33	    1200	     5.745
  60.180	        27	    1200	     5.196
  60.200	        38	    1200	     6.164
  60.220	        20	    1200	     4.472
  60.240	        30	    1200	     5.477
  60.260	        26	    1200	     5.099
  60.280	        29	    1200	     5.385
  60.300	        19	    1200	     4.359
  60.320	        28	    1200	     5.292
  60.340	        30	    1200	     5.477
  60.360	        30	    1200	     5.477
  60.380	        25	    1200	     5.000
  60.400	        27	    1200	     5.196
  60.420	        36	    1200	     6.000
  60.440	        27	    1200	     5.196
  60.460	        26	    1200	     5.099
  60.480	        25	    1200	     5.000
  60.500	        27	    1200	     5.196
  60.520	        24	    1200	     4.899
  60.540	        27	    1200	     5.196
  60.560	        28	    1200	     5.292
  60.580	        24	    1200	     4.899
  60.600	        39	    1200	     6.245
  60.620	        37	    1200	     6.083
  60.640	        35	    1200	     5.916
  60.660	        30	    1200	     5.477
  60.680	        26	    1200	     5.099
  60.700	        30	    1200	     5.477
  60.720	        37	    1200	     6.083
  60.740	        24	    1200	     4.899
  60.760	        12	    1200	     3.464
  60.780	        28	    1200	     5.292
  60.800	        23	    1200	     4.796
  60.820	        26	    1200	     5.099
  60.840	        27	    1200	     5.196
  60.860	        33	    1200	     5.745
  60.880	        23	    1200	     4.796
  60.900	        25	    1200	     5.000
  60.920	        27	    1200	     5.196
  60.940	        35	    1200	     5.916
  60.960	        25	    1200	     5.000
  60.980	        21	    1200	     4.583
  61.000	        25	    1200	     5.000
  61.020	        20	    1200	     4.472
  61.040	        19	    1200	     4.359
  61.060	        34	    1200	     5.831
  61.080	        24	    1200	     4.899
  61.100	        21	    1200	     4.583
  61.120	        23	    1200	     4.796
  61.140	        24	    1200	     4.899
  61.160	        29	    1200	     5.385
  61.180	        28	    1200	     5.292
  61.200	        22	    1200	     4.690
  61.220	        26	    1200	     5.099
  61.240	        33	    1200	     5.745
  61.260	        36	    1200	     6.000
  61.280	        25	    1200	     5.000
  61.300	        23	    1200	     4.796
  61.320	        25	    1200	     5.000
  61.340	        15	    1200	     3.873
  61.360	        23	    1200	     4.796
  61.380	        15	    1200	     3.873
  61.400	        27	    1200	     5.196
  61.420	        27	    1200	     5.196
  61.440	        27	    1200	     5.196
  61.460	        32	    1200	     5.657
  61.480	        16	    1200	     4.000
  61.500	        20	    1200	     4.472
  61.520	        30	    1200	     5.477
  61.540	        26	    1200	     5.099
  61.560	        20	    1200	     4.472
  61.580	        16	    1200	     4.000
  61.600	        24	    1200	     4.899
  61.620	        23	    1200	     4.796
  61.640	        29	    1200	     5.385
  61.660	        17	    1200	     4.123
  61.680	        17	    1200	     4.123
  61.700	        27	    1200	     5.196
  61.720	        19	    1200	     4.359
  61.740	        31	    1200	     5.568
  61.760	        23	    1200	     4.796
  61.780	        34	    1200	     5.831
  61.800	        28	    1200	     5.292
  61.820	        26	    1200	     5.099
  61.840	        23	    1200	     4.796
  61.860	        23	    1200	     4.796
  61.880	        19	    1200	     4.359
  61.900	        23	    1200	     4.796
  61.920	        23	    1200	     4.796
  61.940	        33	    1200	     5.745
  61.960	        29	    1200	     5.385
  61.980	        29	    1200	     5.385
  62.000	        20	    1200	     4.472
  62.020	        24	    1200	     4.899
  62.040	        16	    1200	     4.000
  62.060	        22	    1200	     4.690
  62.080	        27	    1200	     5.196
  62.100	        17	    1200	     4.123
  62.120	        27	    1200	     5.196
  62.140	        36	    1200	     6.000
  62.160	        21	    1200	     4.583
  62.180	        31	    1200	     5.568
  62.200	        19	    1200	     4.359
  62.220	        21	    1200	     4.583
  62.240	        33	    1200	     5.745
  62.260	        24	    1200	     4.899
  62.280	        28	    1200	     5.292
  62.300	        30	    1200	     5.477
  62.320	        18	    1200	     4.243
  62.340	        21	    1200	     4.583
  62.360	        23	    1200	     4.796
  62.380	        24	    1200	     4.899
  62.400	        26	    1200	     5.099
  62.420	        25	    1200	     5.000
  62.440	        25	    1200	     5.000
  62.460	        23	    1200	     4.796
  62.480	        24	    1200	     4.899
  62.500	        24	    1200	     4.899
  62.520	        25	    1200	     5.000
  62.540	        23	    1200	     4.796
  62.560	        22	    1200	     4.690
  62.580	        27	    1200	     5.196
  62.600	        15	    1200	     3.873
  62.620	        25	    1200	     5.000
  62.640	        34	    1200	     5.831
  62.660	        19	    1200	     4.359
  62.680	        28	    1200	     5.292
  62.700	        21	    1200	     4.583
  62.720	        20	    1200	     4.472
  62.740	        24	    1200	     4.899
  62.760	        28	    1200	     5.292
  62.780	        13	    1200	     3.606
  62.800	        28	    1200	     5.292
  62.820	        27	    1200	     5.196
  62.840	        27	    1200	     5.196
  62.860	        36	    1200	     6.000
  62.880	        24	    1200	     4.899
  62.900	        25	    1200	     5.000
  62.920	        22	    1200	     4.690
  62.940	        17	    1200	     4.123
  62.960	        23	    1200	     4.796
  62.980	        26	    1200	     5.099
  63.000	        26	    1200	     5.099
  63.020	        24	    1200	     4.899
  63.040	        24	    1200	     4.899
  63.060	        24	    1200	     4.899
  63.080	        28	    1200	     5.292
  63.100	        24	    1200	     4.899
  63.120	        14	    1200	     3.742
  63.140	        23	    1200	     4.796
  63.160	        34	    1200	     5.831
  63.180	        18	    1200	     4.243
  63.200	        21	    1200	     4.583
  63.220	        23	    1200	     4.796
  63.240	        19	    1200	     4.359
  63.260	        21	    1200	     4.583
  63.280	        16	    1200	     4.000
  63.300	        23	    1200	     4.796
  63.320	        28	    1200	     5.292
  63.340	        26	    1200	     5.099
  63.360	        23	    1200	     4.796
  63.380	        20	    1200	     4.472
  63.400	        29	    1200	     5.385
  63.420	        22	    1200	     4.690
  63.440	        24	    1200	     4.899
  63.460	        24	    1200	     4.899
  63.480	        25	    1200	     5.000
  63.500	        26	    1200	     5.099
  63.520	        30	    1200	     5.477
  63.540	        24	    1200	     4.899
  63.560	        22	    1200	     4.690
  63.580	        25	    1200	     5.000
  63.600	        25	    1200	     5.000
  63.620	        21	    1200	     4.583
  63.640	        20	    1200	     4.472
  63.660	        19	    1200	     4.359
  63.680	        27	    1200	     5.196
  63.700	        21	    1200	     4.583
  63.720	        17	    1200	     4.123
  63.740	        25	    1200	     5.000
  63.760	        27	    1200	     5.196
  63.780	        23	    1200	     4.796
  63.800	        20	    1200	     4.472
  63.820	        22	    1200	     4.690
  63.840	        25	    1200	     5.000
  63.860	        33	    1200	     5.745
  63.880	        32	    1200	     5.657
  63.900	        18	    1200	     4.243
  63.920	        34	    1200	     5.831
  63.940	        28	    1200	     5.292
  63.960	        34	    1200	     5.831
  63.980	        21	    1200	     4.583
  64.000	        29	    1200	     5.385
  64.020	        29	    1200	     5.385
  64.040	        39	    1200	     6.245
  64.060	        22	    1200	     4.690
  64.080	        29	    1200	     5.385
  64.100	        28	    1200	     5.292
  64.120	        30	    1200	     5.477
  64.140	        18	    1200	     4.243
  64.160	        13	    1200	     3.606
  64.180	        32	    1200	     5.657
  64.200	        22	    1200	     4.690
  64.220	        28	    1200	     5.292
  64.240	        22	    1200	     4.690
  64.260	        31	    1200	     5.568
  64.280	        28	    1200	     5.292
  64.300	        25	    1200	     5.000
  64.320	        23	    1200	     4.796
  64.340	        26	    1200	     5.099
  64.360	        29	    1200	     5.385
  64.380	        18	    1200	     4.243
  64.400	        14	    1200	     3.742
  64.420	        30	    1200	     5.477
  64.440	        17	    1200	     4.123
  64.460	        14	    1200	     3.742
  64.480	        21	    1200	     4.583
  64.500	        22	    1200	     4.690
  64.520	        22	    1200	     4.690
  64.540	        28	    1200	     5.292
  64.560	        25	    1200	     5.000
  64.580	        30	    1200	     5.477
  64.600	        29	    1200	     5.385
  64.620	        21	    1200	     4.583
  64.640	        27	    1200	     5.196
  64.660	        25	    1200	     5.000
  64.680	        20	    1200	     4.472
  64.700	        22	    1200	     4.690
  64.720	        16	    1200	     4.000
  64.740	        23	    1200	     4.796
  64.760	        25	    1200	     5.000
  64.780	        18	    1200	     4.243
  64.800	        26	    1200	     5.099
  64.820	        27	    1200	     5.196
  64.840	        21	    1200	     4.583
  64.860	        30	    1200	     5.477
  64.880	        25	    1200	     5.000
  64.900	        28	    1200	     5.292
  64.920	        15	    1200	     3.873
  64.940	        30	    1200	     5.477
  64.960	        22	    1200	     4.690
  64.980	        23	    1200	     4.796
  65.000	        18	    1200	     4.243
  65.020	        23	    1200	     4.796
  65.040	        25	    1200	     5.000
  65.060	        17	    1200	     4.123
  65.080	        20	    1200	     4.472
  65.100	        29	    1200	     5.385
  65.120	        25	    1200	     5.000
  65.140	        16	    1200	     4.000
  65.160	        24	    1200	     4.899
  65.180	        13	    1200	     3.606
  65.200	        24	    1200	     4.899
  65.220	        25	    1200	     5.000
  65.240	        26	    1200	     5.099
  65.260	        29	    1200	     5.385
  65.280	        16	    1200	     4.000
  65.300	        31	    1200	     5.568
  65.320	        19	    1200	     4.359
  65.340	        20	    1200	     4.472
  65.360	        22	    1200	     4.690
  65.380	        27	    1200	     5.196
  65.400	        32	    1200	     5.657
  65.420	        30	    1200	     5.477
  65.440	        18	    1200	     4.243
  65.460	        23	    1200	     4.796
  65.480	        20	    1200	     4.472
  65.500	        20	    1200	     4.472
  65.520	        30	    1200	     5.477
  65.540	        17	    1200	     4.123
  65.560	        19	    1200	     4.359
  65.580	        26	    1200	     5.099
  65.600	        39	    1200	     6.245
  65.620	        24	    1200	     4.899
  65.640	        26	    1200	     5.099
  65.660	        24	    1200	     4.899
  65.680	        24	    1200	     4.899
  65.700	        32	    1200	     5.657
  65.720	        26	    1200	     5.099
  65.740	        26	    1200	     5.099
  65.760	        22	    1200	     4.690
  65.780	        25	    1200	     5.000
  65.800	        33	    1200	     5.745
  65.820	        21	    1200	     4.583
  65.840	        25	    1200	     5.000
  65.860	        27	    1200	     5.196
  65.880	        15	    1200	     3.873
  65.900	        26	    1200	     5.099
  65.920	        27	    1200	     5.196
  65.940	        22	    1200	     4.690
  65.960	        35	    1200	     5.916
  65.980	        22	    1200	     4.690
  66.000	        24	    1200	     4.899
  66.020	        28	    1200	     5.292
  66.040	        31	    1200	     5.568
  66.060	        32	    1200	     5.657
  66.080	        24	    1200	     4.899
  66.100	        28	    1200	     5.292
  66.120	        30	    1200	     5.477
  66.140	        31	    1200	     5.568
  66.160	        27	    1200	     5.196
  66.180	        23	    1200	     4.796
  66.200	        33	    1200	     5.745
  66.220	        29	    1200	     5.385
  66.240	        22	    1200	     4.690
  66.260	        36	    1200	     6.000
  66.280	        30	    1200	     5.477
  66.300	        31	    1200	     5.568
  66.320	        21	    1200	     4.583
  66.340	        25	    1200	     5.000
  66.360	        20	    1200	     4.472
  66.380	        34	    1200	     5.831
  66.400	        22	    1200	     4.690
  66.420	        28	    1200	     5.292
  66.440	        19	    1200	     4.359
  66.460	        28	    1200	     5.292
  66.480	        28	    1200	     5.292
  66.500	        31	    1200	     5.568
  66.520	        31	    1200	     5.568
  66.540	        21	    1200	     4.583
  66.560	        25	    1200	     5.000
  66.580	        27	    1200	     5.196
  66.600	        30	    1200	     5.477
  66.620	        24	    1200	     4.899
  66.640	        25	    1200	     5.000
  66.660	        24	    1200	     4.899
  66.680	        22	    1200	     4.690
  66.700	        36	    1200	     6.000
  66.720	        26	    1200	     5.099
  66.740	        25	    1200	     5.000
  66.760	        32	    1200	     5.657
  66.780	        33	    1200	     5.745
  66.800	        27	    1200	     5.196
  66.820	        30	    1200	     5.477
  66.840	        28	    1200	     5.292
  66.860	        22	    1200	     4.690
  66.880	        24	    1200	     4.899
  66.900	        25	    1200	     5.000
  66.920	        33	    1200	     5.745
  66.940	        32	    1200	     5.657
  66.960	        30	    1200	     5.477
  66.980	        32	    1200	     5.657
  67.000	        39	    1200	     6.245
  67.020	        25	    1200	     5.000
  67.040	        34	    1200	     5.831
  67.060	        41	    1200	     6.403
  67.080	        32	    1200	     5.657
  67.100	        20	    1200	     4.472
  67.120	        37	    1200	     6.083
  67.140	        32	    1200	     5.657
  67.160	        36	    1200	     6.000
  67.180	        33	    1200	     5.745
  67.200	        33	    1200	     5.745
  67.220	        39	    1200	     6.245
  67.240	        38	    1200	     6.164
  67.260	        52	    1200	     7.211
  67.280	        49	    1200	     7.000
  67.300	        49	    1200	     7.000
  67.320	        45	    1200	     6.708
  67.340	        51	    1200	     7.141
  67.360	        50	    1200	     7.071
  67.380	        53	    1200	     7.280
  67.400	        64	    1200	     8.000
  67.420	        67	    1200	     8.185
  67.440	        65	    1200	     8.062
  67.460	        66	    1200	     8.124
  67.480	        67	    1200	     8.185
  67.500	        76	    1200	     8.718
  67.520	        70	    1200	     8.367
  67.540	        86	    1200	     9.274
  67.560	       135	    1200	    11.619
  67.580	       134	    1200	    11.576
  67.600	       136	    1200	    11.662
  67.620	       145	    1200	    12.042
  67.640	       150	    1200	    12.247
  67.660	       172	    1200	    13.115
  67.680	       164	    1200	    12.806
  67.700	       189	    1200	    13.748
  67.720	       166	    1200	    12.884
  67.740	       181	    1200	    13.454
  67.760	       186	    1200	    13.638
  67.780	       189	    1200	    13.748
  67.800	       200	    1200	    14.142
  67.820	       226	    1200	    15.033
  67.840	       219	    1200	    14.799
  67.860	       236	    1200	    15.362
  67.880	       279	    1200	    16.703
  67.900	       303	    1200	    17.407
  67.920	       276	    1200	    16.613
  67.940	       346	    1200	    18.601
  67.960	       344	    1200	    18.547
  67.980	       426	    1200	    20.640
  68.000	       413	    1200	    20.322
  68.020	       443	    1200	    21.048
  68.040	       456	    1200	    21.354
  68.060	       456	    1200	    21.354
  68.080	       484	    1200	    22.000
  68.100	       450	    1200	    21.213
  68.120	       440	    1200	    20.976
  68.140	       402	    1200	    20.050
  68.160	       426	    1200	    20.640
  68.180	       387	    1200	    19.672
  68.200	       423	    1200	    20.567
  68.220	       368	    1200	    19.183
  68.240	       411	    1200	    20.273
  68.260	       363	    1200	    19.053
  68.280	       320	    1200	    17.889
  68.300	       321	    1200	    17.916
  68.320	       272	    1200	    16.492
  68.340	       261	    1200	    16.155
  68.360	       239	    1200	    15.460
  68.380	       222	    1200	    14.900
  68.400	       169	    1200	    13.000
  68.420	       184	    1200	    13.565
  68.440	       145	    1200	    12.042
  68.460	       140	    1200	    11.832
  68.480	       112	    1200	    10.583
  68.500	       109	    1200	    10.440
  68.520	       120	    1200	    10.954
  68.540	       115	    1200	    10.724
  68.560	       112	    1200	    10.583
  68.580	        78	    1200	     8.832
  68.600	        66	    1200	     8.124
  68.620	        74	    1200	     8.602
  68.640	        66	    1200	     8.124
  68.660	        74	    1200	     8.602
  68.680	        53	    1200	     7.280
  68.700	        51	    1200	     7.141
  68.720	        49	    1200	     7.000
  68.740	        41	    1200	     6.403
  68.760	        48	    1200	     6.928
  68.780	        31	    1200	     5.568
  68.800	        40	    1200	     6.325
  68.820	        44	    1200	     6.633
  68.840	        27	    1200	     5.196
  68.860	        38	    1200	     6.164
  68.880	        38	    1200	     6.164
  68.900	        38	    1200	     6.164
  68.920	        29	    1200	     5.385
  68.940	        27	    1200	     5.196
  68.960	        25	    1200	     5.000
  68.980	        34	    1200	     5.831
  69.000	        34	    1200	     5.831
  69.020	        33	    1200	     5.745
  69.040	        27	    1200	     5.196
  69.060	        31	    1200	     5.568
  69.080	        32	    1200	     5.657
  69.100	        35	    1200	     5.916
  69.120	        31	    1200	     5.568
  69.140	        28	    1200	     5.292
  69.160	        20	    1200	     4.472
  69.180	        26	    1200	     5.099
  69.200	        33	    1200	     5.745
  69.220	        17	    1200	     4.123
  69.240	        32	    1200	     5.657
  69.260	        30	    1200	     5.477
  69.280	        31	    1200	     5.568
  69.300	        36	    1200	     6.000
  69.320	        29	    1200	     5.385
  69.340	        34	    1200	     5.831
  69.360	        23	    1200	     4.796
  69.380	        19	    1200	     4.359
  69.400	        26	    1200	     5.099
  69.420	        29	    1200	     5.385
  69.440	        29	    1200	     5.385
  69.460	        27	    1200	     5.196
  69.480	        32	    1200	     5.657
  69.500	        27	    1200	     5.196
  69.520	        26	    1200	     5.099
  69.540	        19	    1200	     4.359
  69.560	        28	    1200	     5.292
  69.580	        15	    1200	     3.873
  69.600	        30	    1200	     5.477
  69.620	        26	    1200	     5.099
  69.640	        31	    1200	     5.568
  69.660	        27	    1200	     5.196
  69.680	        23	    1200	     4.796
  69.700	        35	    1200	     5.916
  69.720	        18	    1200	     4.243
  69.740	        25	    1200	     5.000
  69.760	        27	    1200	     5.196
  69.780	        23	    1200	     4.796
  69.800	        32	    1200	     5.657
  69.820	        23	    1200	     4.796
  69.840	        24	    1200	     4.899
  69.860	        38	    1200	     6.164
  69.880	        26	    1200	     5.099
  69.900	        26	    1200	     5.099
  69.920	        29	    1200	     5.385
  69.940	        28	    1200	     5.292
  69.960	        27	    1200	     5.196
  69.980	        20	    1200	     4.472
  70.000	        23	    1200	     4.796
  70.020	        29	    1200	     5.385
  70.040	        24	    1200	     4.899
  70.060	        16	    1200	     4.000
  70.080	        24	    1200	     4.899
  70.100	        34	    1200	     5.831
  70.120	        18	    1200	     4.243
  70.140	        26	    1200	     5.099
  70.160	        28	    1200	     5.292
  70.180	        33	    1200	     5.745
  70.200	        33	    1200	     5.745
  70.220	        32	    1200	     5.657
  70.240	        29	    1200	     5.385
  70.260	        25	    1200	     5.000
  70.280	        29	    1200	     5.385
  70.300	        23	    1200	     4.796
  70.320	        20	    1200	     4.472
  70.340	        17	    1200	     4.123
  70.360	        22	    1200	     4.690
  70.380	        21	    1200	     4.583
  70.400	        19	    1200	     4.359
  70.420	        29	    1200	     5.385
  70.440	        18	    1200	     4.243
  70.460	        17	    1200	     4.123
  70.480	        20	    1200	     4.472
  70.500	        30	    1200	     5.477
  70.520	        25	    1200	     5.000
  70.540	        17	    1200	     4.123
  70.560	        32	    1200	     5.657
  70.580	        26	    1200	     5.099
  70.600	        26	    1200	     5.099
  70.620	        22	    1200	     4.690
  70.640	        26	    1200	     5.099
  70.660	        20	    1200	     4.472
  70.680	        33	    1200	     5.745
  70.700	        24	    1200	     4.899
  70.720	        15	    1200	     3.873
  70.740	        27	    1200	     5.196
  70.760	        30	    1200	     5.477
  70.780	        14	    1200	     3.742
  70.800	        19	    1200	     4.359
  70.820	        23	    1200	     4.796
  70.840	        22	    1200	     4.690
  70.860	        30	    1200	     5.477
  70.880	        19	    1200	     4.359
  70.900	        21	    1200	     4.583
  70.920	        30	    1200	     5.477
  70.940	        25	    1200	     5.000
  70.960	        16	    1200	     4.000
  70.980	        30	    1200	     5.477
  71.000	        20	    1200	     4.472
  71.020	        25	    1200	     5.000
  71.040	        20	    1200	     4.472
  71.060	        19	    1200	     4.359
  71.080	        27	    1200	     5.196
  71.100	        21	    1200	     4.583
  71.120	        20	    1200	     4.472
  71.140	        23	    1200	     4.796
  71.160	        21	    1200	     4.583
  71.180	        13	    1200	     3.606
  71.200	        30	    1200	     5.477
  71.220	        25	    1200	     5.000
  71.240	        26	    1200	     5.099
  71.260	        22	    1200	     4.690
  71.280	        24	    1200	     4.899
  71.300	        19	    1200	     4.359
  71.320	        31	    1200	     5.568
  71.340	        25	    1200	     5.000
  71.360	        34	    1200	     5.831
  71.380	        26	    1200	     5.099
  71.400	        23	    1200	     4.796
  71.420	        26	    1200	     5.099
  71.440	        26	    1200	     5.099
  71.460	        24	    1200	     4.899
  71.480	        22	    1200	     4.690
  71.500	        20	    1200	     4.472
  71.520	        17	    1200	     4.123
  71.540	        18	    1200	     4.243
  71.560	        21	    1200	     4.583
  71.580	        22	    1200	     4.690
  71.600	        27	    1200	     5.196
  71.620	        20	    1200	     4.472
  71.640	        27	    1200	     5.196
  71.660	        29	    1200	     5.385
  71.680	        20	    1200	     4.472
  71.700	        19	    1200	     4.359
  71.720	        20	    1200	     4.472
  71.740	        17	    1200	     4.123
  71.760	        25	    1200	     5.000
  71.780	        29	    1200	     5.385
  71.800	        32	    1200	     5.657
  71.820	        23	    1200	     4.796
  71.840	        20	    1200	     4.472
  71.860	        23	    1200	     4.796
  71.880	        18	    1200	     4.243
  71.900	        20	    1200	     4.472
  71.920	        32	    1200	     5.657
  71.940	        25	    1200	     5.000
  71.960	        24	    1200	     4.899
  71.980	        23	    1200	     4.796
  72.000	        21	    1200	     4.583
  72.020	        22	    1200	     4.690
  72.040	        21	    1200	     4.583
  72.060	        30	    1200	     5.477
  72.080	        14	    1200	     3.742
  72.100	        19	    1200	     4.359
  72.120	        22	    1200	     4.690
  72.140	        25	    1200	     5.000
  72.160	        27	    1200	     5.196
  72.180	        16	    1200	     4.000
  72.200	        27	    1200	     5.196
  72.220	        26	    1200	     5.099
  72.240	        26	    1200	     5.099
  72.260	        36	    1200	     6.000
  72.280	        27	    1200	     5.196
  72.300	        22	    1200	     4.690
  72.320	        31	    1200	     5.568
  72.340	        31	    1200	     5.568
  72.360	        40	    1200	     6.325
  72.380	        26	    1200	     5.099
  72.400	        28	    1200	     5.292
  72.420	        29	    1200	     5.385
  72.440	        28	    1200	     5.292
  72.460	        23	    1200	     4.796
  72.480	        25	    1200	     5.000
  72.500	        30	    1200	     5.477
  72.520	        24	    1200	     4.899
  72.540	        34	    1200	     5.831
  72.560	        36	    1200	     6.000
  72.580	        22	    1200	     4.690
  72.600	        42	    1200	     6.481
  72.620	        35	    1200	     5.916
  72.640	        41	    1200	     6.403
  72.660	        38	    1200	     6.164
  72.680	        26	    1200	     5.099
  72.700	        45	    1200	     6.708
  72.720	        32	    1200	     5.657
  72.740	        36	    1200	     6.000
  72.760	        41	    1200	     6.403
  72.780	        36	    1200	     6.000
  72.800	        46	    1200	     6.782
  72.820	        38	    1200	     6.164
  72.840	        37	    1200	     6.083
  72.860	        40	    1200	     6.325
  72.880	        47	    1200	     6.856
  72.900	        40	    1200	     6.325
  72.920	        38	    1200	     6.164
  72.940	        44	    1200	     6.633
  72.960	        38	    1200	     6.164
  72.980	        50	    1200	     7.071
  73.000	        41	    1200	     6.403
  73.020	        35	    1200	     5.916
  73.040	        35	    1200	     5.916
  73.060	        29	    1200	     5.385
  73.080	        35	    1200	     5.916
  73.100	        30	    1200	     5.477
  73.120	        39	    1200	     6.245
  73.140	        35	    1200	     5.916
  73.160	        30	    1200	     5.477
  73.180	        31	    1200	     5.568
  73.200	        34	    1200	     5.831
  73.220	        28	    1200	     5.292
  73.240	        30	    1200	     5.477
  73.260	        24	    1200	     4.899
  73.280	        20	    1200	     4.472
  73.300	        30	    1200	     5.477
  73.320	        25	    1200	     5.000
  73.340	        24	    1200	     4.899
  73.360	        25	    1200	     5.000
  73.380	        20	    1200	     4.472
  73.400	        24	    1200	     4.899
  73.420	        20	    1200	     4.472
  73.440	        25	    1200	     5.000
  73.460	        21	    1200	     4.583
  73.480	        25	    1200	     5.000
  73.500	        18	    1200	     4.243
  73.520	        21	    1200	     4.583
  73.540	        21	    1200	     4.583
  73.560	        28	    1200	     5.292
  73.580	        27	    1200	     5.196
  73.600	        23	    1200	     4.796
  73.620	        27	    1200	     5.196
  73.640	        24	    1200	     4.899
  73.660	        21	    1200	     4.583
  73.680	        18	    1200	     4.243
  73.700	        22	    1200	     4.690
  73.720	        22	    1200	     4.690
  73.740	        33	    1200	     5.745
  73.760	        30	    1200	     5.477
  73.780	        11	    1200	     3.317
  73.800	        13	    1200	     3.606
  73.820	        13	    1200	     3.606
  73.840	        21	    1200	     4.583
  73.860	        23	    1200	     4.796
  73.880	        16	    1200	     4.000
  73.900	        16	    1200	     4.000
  73.920	        22	    1200	     4.690
  73.940	        20	    1200	     4.472
  73.960	        19	    1200	     4.359
  73.980	        16	    1200	     4.000
  74.000	        20	    1200	     4.472
  74.020	        12	    1200	     3.464
  74.040	        33	    1200	     5.745
  74.060	        21	    1200	     4.583
  74.080	        18	    1200	     4.243
  74.100	        22	    1200	     4.690
  74.120	        20	    1200	     4.472
  74.140	        14	    1200	     3.742
  74.160	        29	    1200	     5.385
  74.180	        20	    1200	     4.472
  74.200	        19	    1200	     4.359
  74.220	        19	    1200	     4.359
  74.240	        28	    1200	     5.292
  74.260	        16	    1200	     4.000
  74.280	        26	    1200	     5.099
  74.300	        18	    1200	     4.243
  74.320	        19	    1200	     4.359
  74.340	        19	    1200	     4.359
  74.360	        16	    1200	     4.000
  74.380	        28	    1200	     5.292
  74.400	        21	    1200	     4.583
  74.420	        21	    1200	     4.583
  74.440	        14	    1200	     3.742
  74.460	        19	    1200	     4.359
  74.480	        14	    1200	     3.742
  74.500	        21	    1200	     4.583
  74.520	        19	    1200	     4.359
  74.540	        19	    1200	     4.359
  74.560	        23	    1200	     4.796
  74.580	        23	    1200	     4.796
  74.600	        27	    1200	     5.196
  74.620	        22	    1200	     4.690
  74.640	        17	    1200	     4.123
  74.660	        17	    1200	     4.123
  74.680	        19	    1200	     4.359
  74.700	        17	    1200	     4.123
  74.720	        20	    1200	     4.472
  74.740	        27	    1200	     5.196
  74.760	        14	    1200	     3.742
  74.780	        23	    1200	     4.796
  74.800	        22	    1200	     4.690
  74.820	        24	    1200	     4.899
  74.840	        21	    1200	     4.583
  74.860	        20	    1200	     4.472
  74.880	        21	    1200	     4.583
  74.900	        16	    1200	     4.000
  74.920	        13	    1200	     3.606
  74.940	        26	    1200	     5.099
  74.960	        22	    1200	     4.690
  74.980	        34	    1200	     5.831
  75.000	        20	    1200	     4.472
  75.020	        18	    1200	     4.243
  75.040	        16	    1200	     4.000
  75.060	        19	    1200	     4.359
  75.080	        26	    1200	     5.099
  75.100	        24	    1200	     4.899
  75.120	        27	    1200	     5.196
  75.140	        18	    1200	     4.243
  75.160	        12	    1200	     3.464
  75.180	        17	    1200	     4.123
  75.200	        20	    1200	     4.472
  75.220	        25	    1200	     5.000
  75.240	        12	    1200	     3.464
  75.260	        18	    1200	     4.243
  75.280	        18	    1200	     4.243
  75.300	        23	    1200	     4.796
  75.320	        28	    1200	     5.292
  75.340	        14	    1200	     3.742
  75.360	        24	    1200	     4.899
  75.380	        31	    1200	     5.568
  75.400	        26	    1200	     5.099
  75.420	        22	    1200	     4.690
  75.440	        18	    1200	     4.243
  75.460	        17	    1200	     4.123
  75.480	        16	    1200	     4.000
  75.500	        29	    1200	     5.385
  75.520	        12	    1200	     3.464
  75.540	        20	    1200	     4.472
  75.560	        13	    1200	     3.606
  75.580	        25	    1200	     5.000
  75.600	        19	    1200	     4.359
  75.620	        16	    1200	     4.000
  75.640	        23	    1200	     4.796
  75.660	        18	    1200	     4.243
  75.680	        26	    1200	     5.099
  75.700	        25	    1200	     5.000
  75.720	        30	    1200	     5.477
  75.740	        22	    1200	     4.690
  75.760	        28	    1200	     5.292
  75.780	        21	    1200	     4.583
  75.800	        12	    1200	     3.464
  75.820	        29	    1200	     5.385
  75.840	        28	    1200	     5.292
  75.860	        22	    1200	     4.690
  75.880	        25	    1200	     5.000
  75.900	        36	    1200	     6.000
  75.920	        27	    1200	     5.196
  75.940	        23	    1200	     4.796
  75.960	        28	    1200	     5.292
  75.980	        19	    1200	     4.359
  76.000	        25	    1200	     5.000
  76.020	        28	    1200	     5.292
  76.040	        16	    1200	     4.000
  76.060	        22	    1200	     4.690
  76.080	        26	    1200	     5.099
  76.100	        25	    1200	     5.000
  76.120	        27	    1200	     5.196
  76.140	        25	    1200	     5.000
  76.160	        26	    1200	     5.099
  76.180	        25	    1200	     5.000
  76.200	        30	    1200	     5.477
  76.220	        32	    1200	     5.657
  76.240	        37	    1200	     6.083
  76.260	        26	    1200	     5.099
  76.280	        33	    1200	     5.745
  76.300	        26	    1200	     5.099
  76.320	        24	    1200	     4.899
  76.340	        23	    1200	     4.796
  76.360	        25	    1200	     5.000
  76.380	        26	    1200	     5.099
  76.400	        17	    1200	     4.123
  76.420	        32	    1200	     5.657
  76.440	        19	    1200	     4.359
  76.460	        29	    1200	     5.385
  76.480	        32	    1200	     5.657
  76.500	        25	    1200	     5.000
  76.520	        27	    1200	     5.196
  76.540	        29	    1200	     5.385
  76.560	        32	    1200	     5.657
  76.580	        23	    1200	     4.796
  76.600	        37	    1200	     6.083
  76.620	        29	    1200	     5.385
  76.640	        28	    1200	     5.292
  76.660	        25	    1200	     5.000
  76.680	        37	    1200	     6.083
  76.700	        45	    1200	     6.708
  76.720	        44	    1200	     6.633
  76.740	        32	    1200	     5.657
  76.760	        51	    1200	     7.141
  76.780	        48	    1200	     6.928
  76.800	        59	    1200	     7.681
  76.820	        60	    1200	     7.746
  76.840	        64	    1200	     8.000
  76.860	        62	    1200	     7.874
  76.880	        57	    1200	     7.550
  76.900	        71	    1200	     8.426
  76.920	        64	    1200	     8.000
  76.940	        82	    1200	     9.055
  76.960	        76	    1200	     8.718
  76.980	        83	    1200	     9.110
  77.000	       107	    1200	    10.344
  77.020	       101	    1200	    10.050
  77.040	       105	    1200	    10.247
  77.060	       110	    1200	    10.488
  77.080	       103	    1200	    10.149
  77.100	       106	    1200	    10.296
  77.120	       120	    1200	    10.954
  77.140	       108	    1200	    10.392
  77.160	       135	    1200	    11.619
  77.180	       130	    1200	    11.402
  77.200	       142	    1200	    11.916
  77.220	       147	    1200	    12.124
  77.240	       161	    1200	    12.689
  77.260	       138	    1200	    11.747
  77.280	       161	    1200	    12.689
  77.300	       168	    1200	    12.961
  77.320	       177	    1200	    13.304
  77.340	       210	    1200	    14.491
  77.360	       237	    1200	    15.395
  77.380	       247	    1200	    15.716
  77.400	       264	    1200	    16.248
  77.420	       249	    1200	    15.780
  77.440	       264	    1200	    16.248
  77.460	       294	    1200	    17.146
  77.480	       317	    1200	    17.804
  77.500	       293	    1200	    17.117
  77.520	       267	    1200	    16.340
  77.540	       305	    1200	    17.464
  77.560	       273	    1200	    16.523
  77.580	       286	    1200	    16.912
  77.600	       290	    1200	    17.029
  77.620	       268	    1200	    16.371
  77.640	       263	    1200	    16.217
  77.660	       278	    1200	    16.673
  77.680	       255	    1200	    15.969
  77.700	       227	    1200	    15.067
  77.720	       228	    1200	    15.100
  77.740	       234	    1200	    15.297
  77.760	       193	    1200	    13.892
  77.780	       178	    1200	    13.342
  77.800	       180	    1200	    13.416
  77.820	       173	    1200	    13.153
  77.840	       139	    1200	    11.790
  77.860	       146	    1200	    12.083
  77.880	       136	    1200	    11.662
  77.900	       109	    1200	    10.440
  77.920	       132	    1200	    11.489
  77.940	        99	    1200	     9.950
  77.960	       107	    1200	    10.344
  77.980	        95	    1200	     9.747
  78.000	        81	    1200	     9.000
  78.020	        85	    1200	     9.220
  78.040	        69	    1200	     8.307
  78.060	        70	    1200	     8.367
  78.080	        73	    1200	     8.544
  78.100	        48	    1200	     6.928
  78.120	        60	    1200	     7.746
  78.140	        50	    1200	     7.071
  78.160	        44	    1200	     6.633
  78.180	        62	    1200	     7.874
  78.200	        48	    1200	     6.928
  78.220	        40	    1200	     6.325
  78.240	        46	    1200	     6.782
  78.260	        42	    1200	     6.481
  78.280	        45	    1200	     6.708
  78.300	        35	    1200	     5.916
  78.320	        42	    1200	     6.481
  78.340	        46	    1200	     6.782
  78.360	        26	    1200	     5.099
  78.380	        22	    1200	     4.690
  78.400	        32	    1200	     5.657
  78.420	        26	    1200	     5.099
  78.440	        34	    1200	     5.831
  78.460	        36	    1200	     6.000
  78.480	        29	    1200	     5.385
  78.500	        30	    1200	     5.477
  78.520	        35	    1200	     5.916
  78.540	        35	    1200	     5.916
  78.560	        27	    1200	     5.196
  78.580	        23	    1200	     4.796
  78.600	        29	    1200	     5.385
  78.620	        20	    1200	     4.472
  78.640	        28	    1200	     5.292
  78.660	        19	    1200	     4.359
  78.680	        29	    1200	     5.385
  78.700	        30	    1200	     5.477
  78.720	        25	    1200	     5.000
  78.740	        18	    1200	     4.243
  78.760	        35	    1200	     5.916
  78.780	        28	    1200	     5.292
  78.800	        24	    1200	     4.899
  78.820	        21	    1200	     4.583
  78.840	        25	    1200	     5.000
  78.860	        21	    1200	     4.583
  78.880	        26	    1200	     5.099
  78.900	        21	    1200	     4.583
  78.920	        16	    1200	     4.000
  78.940	        33	    1200	     5.745
  78.960	        20	    1200	     4.472
  78.980	        21	    1200	     4.583
  79.000	        27	    1200	     5.196
  79.020	        28	    1200	     5.292
  79.040	        26	    1200	     5.099
  79.060	        25	    1200	     5.000
  79.080	        23	    1200	     4.796
  79.100	        23	    1200	     4.796
  79.120	        26	    1200	     5.099
  79.140	        28	    1200	     5.292
  79.160	        19	    1200	     4.359
  79.180	        19	    1200	     4.359
  79.200	        23	    1200	     4.796
  79.220	        24	    1200	     4.899
  79.240	        31	    1200	     5.568
  79.260	        29	    1200	     5.385
  79.280	        29	    1200	     5.385
  79.300	        30	    1200	     5.477
  79.320	        26	    1200	     5.099
  79.340	        23	    1200	     4.796
  79.360	        24	    1200	     4.899
  79.380	        17	    1200	     4.123
  79.400	        23	    1200	     4.796
  79.420	        28	    1200	     5.292
  79.440	        27	    1200	     5.196
  79.460	        24	    1200	     4.899
  79.480	        20	    1200	     4.472
  79.500	        16	    1200	     4.000
  79.520	        23	    1200	     4.796
  79.540	        22	    1200	     4.690
  79.560	        18	    1200	     4.243
  79.580	        18	    1200	     4.243
  79.600	        22	    1200	     4.690
  79.620	        31	    1200	     5.568
  79.640	        29	    1200	     5.385
  79.660	        23	    1200	     4.796
  79.680	        24	    1200	     4.899
  79.700	        21	    1200	     4.583
  79.720	        22	    1200	     4.690
  79.740	        22	    1200	     4.690
  79.760	        23	    1200	     4.796
  79.780	        21	    1200	     4.583
  79.800	        30	    1200	     5.477
  79.820	        30	    1200	     5.477
  79.840	        26	    1200	     5.099
  79.860	        17	    1200	     4.123
  79.880	        17	    1200	     4.123
  79.900	        19	    1200	     4.359
  79.920	        31	    1200	     5.568
  79.940	        17	    1200	     4.123
  79.960	        19	    1200	     4.359
  79.980	        21	    1200	     4.583
  80.000	        17	    1200	     4.123
  80.020	        23	    1200	     4.796
  80.040	        21	    1200	     4.583
  80.060	        15	    1200	     3.873
  80.080	        25	    1200	     5.000
  80.100	        19	    1200	     4.359
  80.120	        21	    1200	     4.583
  80.140	        20	    1200	     4.472
  80.160	        30	    1200	     5.477
  80.180	        23	    1200	     4.796
  80.200	        16	    1200	     4.000
  80.220	        32	    1200	     5.657
  80.240	        17	    1200	     4.123
  80.260	        25	    1200	     5.000
  80.280	        26	    1200	     5.099
  80.300	        21	    1200	     4.583
  80.320	        23	    1200	     4.796
  80.340	        23	    1200	     4.796
  80.360	        31	    1200	     5.568
  80.380	        16	    1200	     4.000
  80.400	        15	    1200	     3.873
  80.420	        23	    1200	     4.796
  80.440	        26	    1200	     5.099
  80.460	        19	    1200	     4.359
  80.480	        19	    1200	     4.359
  80.500	        28	    1200	     5.292
  80.520	        16	    1200	     4.000
  80.540	        23	    1200	     4.796
  80.560	        22	    1200	     4.690
  80.580	        26	    1200	     5.099
  80.600	        23	    1200	     4.796
  80.620	        31	    1200	     5.568
  80.640	        23	    1200	     4.796
  80.660	        19	    1200	     4.359
  80.680	        22	    1200	     4.690
  80.700	        32	    1200	     5.657
  80.720	        19	    1200	     4.359
  80.740	        22	    1200	     4.690
  80.760	        20	    1200	     4.472
  80.780	        21	    1200	     4.583
  80.800	        19	    1200	     4.359
  80.820	        28	    1200	     5.292
  80.840	        20	    1200	     4.472
  80.860	        34	    1200	     5.831
  80.880	        17	    1200	     4.123
  80.900	        21	    1200	     4.583
  80.920	        16	    1200	     4.000
  80.940	        23	    1200	     4.796
  80.960	        27	    1200	     5.196
  80.980	        19	    1200	     4.359
  81.000	        24	    1200	     4.899
  81.020	        15	    1200	     3.873
  81.040	        24	    1200	     4.899
  81.060	        23	    1200	     4.796
  81.080	        20	    1200	     4.472
  81.100	        20	    1200	     4.472
  81.120	        18	    1200	     4.243
  81.140	        23	    1200	     4.796
  81.160	        24	    1200	     4.899
  81.180	        30	    1200	     5.477
  81.200	        39	    1200	     6.245
  81.220	        34	    1200	     5.831
  81.240	        27	    1200	     5.196
  81.260	        36	    1200	     6.000
  81.280	        31	    1200	     5.568
  81.300	        23	    1200	     4.796
  81.320	        25	    1200	     5.000
  81.340	        29	    1200	     5.385
  81.360	        25	    1200	     5.000
  81.380	        39	    1200	     6.245
  81.400	        38	    1200	     6.164
  81.420	        30	    1200	     5.477
  81.440	        33	    1200	     5.745
  81.460	        44	    1200	     6.633
  81.480	        40	    1200	     6.325
  81.500	        41	    1200	     6.403
  81.520	        53	    1200	     7.280
  81.540	        38	    1200	     6.164
  81.560	        44	    1200	     6.633
  81.580	        45	    1200	     6.708
  81.600	        37	    1200	     6.083
  81.620	        51	    1200	     7.141
  81.640	        36	    1200	     6.000
  81.660	        46	    1200	     6.782
  81.680	        48	    1200	     6.928
  81.700	        46	    1200	     6.782
  81.720	        54	    1200	     7.348
  81.740	        60	    1200	     7.746
  81.760	        52	    1200	     7.211
  81.780	        60	    1200	     7.746
  81.800	        36	    1200	     6.000
  81.820	        57	    1200	     7.550
  81.840	        54	    1200	     7.348
  81.860	        53	    1200	     7.280
  81.880	        49	    1200	     7.000
  81.900	        53	    1200	     7.280
  81.920	        65	    1200	     8.062
  81.940	        81	    1200	     9.000
  81.960	        84	    1200	     9.165
  81.980	        89	    1200	     9.434
  82.000	        71	    1200	     8.426
  82.020	        84	    1200	     9.165
  82.040	        83	    1200	     9.110
  82.060	        65	    1200	     8.062
  82.080	        75	    1200	     8.660
  82.100	        64	    1200	     8.000
  82.120	        81	    1200	     9.000
  82.140	        99	    1200	     9.950
  82.160	        95	    1200	     9.747
  82.180	        47	    1200	     6.856
  82.200	        69	    1200	     8.307
  82.220	        72	    1200	     8.485
  82.240	        78	    1200	     8.832
  82.260	        90	    1200	     9.487
  82.280	        76	    1200	     8.718
  82.300	        68	    1200	     8.246
  82.320	        68	    1200	     8.246
  82.340	        63	    1200	     7.937
  82.360	        57	    1200	     7.550
  82.380	        66	    1200	     8.124
  82.400	        56	    1200	     7.483
  82.420	        48	    1200	     6.928
  82.440	        54	    1200	     7.348
  82.460	        42	    1200	     6.481
  82.480	        41	    1200	     6.403
  82.500	        39	    1200	     6.245
  82.520	        40	    1200	     6.325
  82.540	        33	    1200	     5.745
  82.560	        43	    1200	     6.557
  82.580	        45	    1200	     6.708
  82.600	        31	    1200	     5.568
  82.620	        38	    1200	     6.164
  82.640	        33	    1200	     5.745
  82.660	        28	    1200	     5.292
  82.680	        28	    1200	     5.292
  82.700	        23	    1200	     4.796
  82.720	        23	    1200	     4.796
  82.740	        34	    1200	     5.831
  82.760	        28	    1200	     5.292
  82.780	        34	    1200	     5.831
  82.800	        21	    1200	     4.583
  82.820	        27	    1200	     5.196
  82.840	        20	    1200	     4.472
  82.860	        26	    1200	     5.099
  82.880	        16	    1200	     4.000
  82.900	        24	    1200	     4.899
  82.920	        34	    1200	     5.831
  82.940	        30	    1200	     5.477
  82.960	        20	    1200	     4.472
  82.980	        19	    1200	     4.359
  83.000	        22	    1200	     4.690
  83.020	        19	    1200	     4.359
  83.040	        26	    1200	     5.099
  83.060	        21	    1200	     4.583
  83.080	        27	    1200	     5.196
  83.100	        23	    1200	     4.796
  83.120	        18	    1200	     4.243
  83.140	        35	    1200	     5.916
  83.160	        19	    1200	     4.359
  83.180	        24	    1200	     4.899
  83.200	        23	    1200	     4.796
  83.220	        17	    1200	     4.123
  83.240	        21	    1200	     4.583
  83.260	        24	    1200	     4.899
  83.280	        19	    1200	     4.359
  83.300	        31	    1200	     5.568
  83.320	        16	    1200	     4.000
  83.340	        26	    1200	     5.099
  83.360	        23	    1200	     4.796
  83.380	        35	    1200	     5.916
  83.400	        15	    1200	     3.873
  83.420	        18	    1200	     4.243
  83.440	        18	    1200	     4.243
  83.460	        15	    1200	     3.873
  83.480	        19	    1200	     4.359
  83.500	        29	    1200	     5.385
  83.520	        24	    1200	     4.899
  83.540	        24	    1200	     4.899
  83.560	        18	    1200	     4.243
  83.580	        19	    1200	     4.359
  83.600	        25	    1200	     5.000
  83.620	        23	    1200	     4.796
  83.640	        28	    1200	     5.292
  83.660	        20	    1200	     4.472
  83.680	        20	    1200	     4.472
  83.700	        32	    1200	     5.657
  83.720	        23	    1200	     4.796
  83.740	        17	    1200	     4.123
  83.760	        21	    1200	     4.583
  83.780	        30	    1200	     5.477
  83.800	        29	    1200	     5.385
  83.820	        15	    1200	     3.873
  83.840	        21	    1200	     4.583
  83.860	        18	    1200	     4.243
  83.880	        20	    1200	     4.472
  83.900	        20	    1200	     4.472
  83.920	        14	    1200	     3.742
  83.940	        15	    1200	     3.873
  83.960	        23	    1200	     4.796
  83.980	        17	    1200	     4.123
  84.000	        22	    1200	     4.690
  84.020	        16	    1200	     4.000
  84.040	        17	    1200	     4.123
  84.060	        21	    1200	     4.583
  84.080	        19	    1200	     4.359
  84.100	        18	    1200	     4.243
  84.120	        27	    1200	     5.196
  84.140	        17	    1200	     4.123
  84.160	        25	    1200	     5.000
  84.180	        21	    1200	     4.583
  84.200	        18	    1200	     4.243
  84.220	        26	    1200	     5.099
  84.240	        17	    1200	     4.123
  84.260	        31	    1200	     5.568
  84.280	        20	    1200	     4.472
  84.300	        18	    1200	     4.243
  84.320	        16	    1200	     4.000
  84.340	        24	    1200	     4.899
  84.360	        16	    1200	     4.000
  84.380	        21	    1200	     4.583
  84.400	        19	    1200	     4.359
  84.420	        20	    1200	     4.472
  84.440	        21	    1200	     4.583
  84.460	        25	    1200	     5.000
  84.480	        24	    1200	     4.899
  84.500	        17	    1200	     4.123
  84.520	        19	    1200	     4.359
  84.540	        20	    1200	     4.472
  84.560	        14	    1200	     3.742
  84.580	        24	    1200	     4.899
  84.600	        23	    1200	     4.796
  84.620	        17	    1200	     4.123
  84.640	        26	    1200	     5.099
  84.660	        15	    1200	     3.873
  84.680	        22	    1200	     4.690
  84.700	        21	    1200	     4.583
  84.720	        24	    1200	     4.899
  84.740	        18	    1200	     4.243
  84.760	        26	    1200	     5.099
  84.780	        23	    1200	     4.796
  84.800	        26	    1200	     5.099
  84.820	        24	    1200	     4.899
  84.840	        25	    1200	     5.000
  84.860	        22	    1200	     4.690
  84.880	        23	    1200	     4.796
  84.900	        22	    1200	     4.690
  84.920	        20	    1200	     4.472
  84.940	        26	    1200	     5.099
  84.960	        26	    1200	     5.099
  84.980	        14	    1200	     3.742
  85.000	        28	    1200	     5.292
  85.020	        19	    1200	     4.359
  85.040	        25	    1200	     5.000
  85.060	        23	    1200	     4.796
  85.080	        32	    1200	     5.657
  85.100	        20	    1200	     4.472
  85.120	        17	    1200	     4.123
  85.140	        17	    1200	     4.123
  85.160	        12	    1200	     3.464
  85.180	        27	    1200	     5.196
  85.200	        14	    1200	     3.742
  85.220	        22	    1200	     4.690
  85.240	        21	    1200	     4.583
  85.260	        15	    1200	     3.873
  85.280	        25	    1200	     5.000
  85.300	        28	    1200	     5.292
  85.320	        21	    1200	     4.583
  85.340	        18	    1200	     4.243
  85.360	        25	    1200	     5.000
  85.380	        20	    1200	     4.472
  85.400	        18	    1200	     4.243
  85.420	        23	    1200	     4.796
  85.440	        13	    1200	     3.606
  85.460	        20	    1200	     4.472
  85.480	        32	    1200	     5.657
  85.500	        29	    1200	     5.385
  85.520	        24	    1200	     4.899
  85.540	        26	    1200	     5.099
  85.560	        26	    1200	     5.099
  85.580	        16	    1200	     4.000
  85.600	        27	    1200	     5.196
  85.620	        27	    1200	     5.196
  85.640	        26	    1200	     5.099
  85.660	        21	    1200	     4.583
  85.680	        25	    1200	     5.000
  85.700	        27	    1200	     5.196
  85.720	        21	    1200	     4.583
  85.740	        23	    1200	     4.796
  85.760	        36	    1200	     6.000
  85.780	        36	    1200	     6.000
  85.800	        30	    1200	     5.477
  85.820	        28	    1200	     5.292
  85.840	        33	    1200	     5.745
  85.860	        38	    1200	     6.164
  85.880	        27	    1200	     5.196
  85.900	        28	    1200	     5.292
  85.920	        39	    1200	     6.245
  85.940	        38	    1200	     6.164
  85.960	        42	    1200	     6.481
  85.980	        41	    1200	     6.403
  86.000	        42	    1200	     6.481
  86.020	        47	    1200	     6.856
  86.040	        47	    1200	     6.856
  86.060	        51	    1200	     7.141
  86.080	        59	    1200	     7.681
  86.100	        62	    1200	     7.874
  86.120	        55	    1200	     7.416
  86.140	        66	    1200	     8.124
  86.160	        46	    1200	     6.782
  86.180	        57	    1200	     7.550
  86.200	        52	    1200	     7.211
  86.220	        69	    1200	     8.307
  86.240	        72	    1200	     8.485
  86.260	        61	    1200	     7.810
  86.280	        73	    1200	     8.544
  86.300	        69	    1200	     8.307
  86.320	        72	    1200	     8.485
  86.340	        69	    1200	     8.307
  86.360	        70	    1200	     8.367
  86.380	        60	    1200	     7.746
  86.400	        75	    1200	     8.660
  86.420	        93	    1200	     9.644
  86.440	        93	    1200	     9.644
  86.460	        79	    1200	     8.888
  86.480	       118	    1200	    10.863
  86.500	       117	    1200	    10.817
  86.520	       115	    1200	    10.724
  86.540	       116	    1200	    10.770
  86.560	       117	    1200	    10.817
  86.580	       149	    1200	    12.207
  86.600	       138	    1200	    11.747
  86.620	       123	    1200	    11.091
  86.640	       121	    1200	    11.000
  86.660	       117	    1200	    10.817
  86.680	       124	    1200	    11.136
  86.700	       128	    1200	    11.314
  86.720	       131	    1200	    11.446
  86.740	       123	    1200	    11.091
  86.760	       114	    1200	    10.677
  86.780	       108	    1200	    10.392
  86.800	       128	    1200	    11.314
  86.820	       100	    1200	    10.000
  86.840	        87	    1200	     9.327
  86.860	       104	    1200	    10.198
  86.880	        95	    1200	     9.747
  86.900	       102	    1200	    10.100
  86.920	        87	    1200	     9.327
  86.940	        71	    1200	     8.426
  86.960	        91	    1200	     9.539
  86.980	        89	    1200	     9.434
  87.000	        71	    1200	     8.426
  87.020	        87	    1200	     9.327
  87.040	        86	    1200	     9.274
  87.060	        61	    1200	     7.810
  87.080	        57	    1200	     7.550
  87.100	        62	    1200	     7.874
  87.120	        47	    1200	     6.856
  87.140	        50	    1200	     7.071
  87.160	        56	    1200	     7.483
  87.180	        48	    1200	     6.928
  87.200	        53	    1200	     7.280
  87.220	        42	    1200	     6.481
  87.240	        35	    1200	     5.916
  87.260	        33	    1200	     5.745
  87.280	        39	    1200	     6.245
  87.300	        35	    1200	     5.916
  87.320	        29	    1200	     5.385
  87.340	        17	    1200	     4.123
  87.360	        40	    1200	     6.325
  87.380	        40	    1200	     6.325
  87.400	        33	    1200	     5.745
  87.420	        20	    1200	     4.472
  87.440	        33	    1200	     5.745
  87.460	        25	    1200	     5.000
  87.480	        29	    1200	     5.385
  87.500	        28	    1200	     5.292
  87.520	        26	    1200	     5.099
  87.540	        22	    1200	     4.690
  87.560	        23	    1200	     4.796
  87.580	        13	    1200	     3.606
  87.600	        30	    1200	     5.477
  87.620	        26	    1200	     5.099
  87.640	        23	    1200	     4.796
  87.660	        20	    1200	     4.472
  87.680	        31	    1200	     5.568
  87.700	        33	    1200	     5.745
  87.720	        23	    1200	     4.796
  87.740	        23	    1200	     4.796
  87.760	        30	    1200	     5.477
  87.780	        24	    1200	     4.899
  87.800	        21	    1200	     4.583
  87.820	        23	    1200	     4.796
  87.840	        17	    1200	     4.123
  87.860	        22	    1200	     4.690
  87.880	        25	    1200	     5.000
  87.900	        19	    1200	     4.359
  87.920	        22	    1200	     4.690
  87.940	        18	    1200	     4.243
  87.960	        35	    1200	     5.916
  87.980	        17	    1200	     4.123
  88.000	        21	    1200	     4.583
  88.020	        21	    1200	     4.583
  88.040	        21	    1200	     4.583
  88.060	        21	    1200	     4.583
  88.080	        16	    1200	     4.000
  88.100	        22	    1200	     4.690
  88.120	        24	    1200	     4.899
  88.140	        22	    1200	     4.690
  88.160	        31	    1200	     5.568
  88.180	        33	    1200	     5.745
  88.200	        27	    1200	     5.196
  88.220	        27	    1200	     5.196
  88.240	        30	    1200	     5.477
  88.260	        30	    1200	     5.477
  88.280	        20	    1200	     4.472
  88.300	        23	    1200	     4.796
  88.320	        24	    1200	     4.899
  88.340	        30	    1200	     5.477
  88.360	        19	    1200	     4.359
  88.380	        24	    1200	     4.899
  88.400	        19	    1200	     4.359
  88.420	        12	    1200	     3.464
  88.440	        22	    1200	     4.690
  88.460	        22	    1200	     4.690
  88.480	        23	    1200	     4.796
  88.500	        11	    1200	     3.317
  88.520	        22	    1200	     4.690
  88.540	        23	    1200	     4.796
  88.560	        22	    1200	     4.690
  88.580	        17	    1200	     4.123
  88.600	        19	    1200	     4.359
  88.620	        15	    1200	     3.873
  88.640	        27	    1200	     5.196
  88.660	        19	    1200	     4.359
  88.680	        18	    1200	     4.243
  88.700	        16	    1200	     4.000
  88.720	        27	    1200	     5.196
  88.740	        21	    1200	     4.583
  88.760	        20	    1200	     4.472
  88.780	        24	    1200	     4.899
  88.800	        17	    1200	     4.123
  88.820	        31	    1200	     5.568
  88.840	        23	    1200	     4.796
  88.860	        19	    1200	     4.359
  88.880	        21	    1200	     4.583
  88.900	        26	    1200	     5.099
  88.920	        24	    1200	     4.899
  88.940	        24	    1200	     4.899
  88.960	        18	    1200	     4.243
  88.980	        19	    1200	     4.359
  89.000	        17	    1200	     4.123
  89.020	        21	    1200	     4.583
  89.040	        21	    1200	     4.583
  89.060	        20	    1200	     4.472
  89.080	        19	    1200	     4.359
  89.100	        21	    1200	     4.583
  89.120	        19	    1200	     4.359
  89.140	        19	    1200	     4.359
  89.160	        10	    1200	     3.162
  89.180	        22	    1200	     4.690
  89.200	        19	    1200	     4.359
  89.220	        23	    1200	     4.796
  89.240	        24	    1200	     4.899
  89.260	        23	    1200	     4.796
  89.280	        21	    1200	     4.583
  89.300	        19	    1200	     4.359
  89.320	        19	    1200	     4.359
  89.340	        21	    1200	     4.583
  89.360	        25	    1200	     5.000
  89.380	        26	    1200	     5.099
  89.400	        19	    1200	     4.359
  89.420	        22	    1200	     4.690
  89.440	        13	    1200	     3.606
  89.460	        17	    1200	     4.123
  89.480	        23	    1200	     4.796
  89.500	        18	    1200	     4.243
  89.520	        15	    1200	     3.873
  89.540	        14	    1200	     3.742
  89.560	        22	    1200	     4.690
  89.580	        21	    1200	     4.583
  89.600	        21	    1200	     4.583
  89.620	        15	    1200	     3.873
  89.640	        17	    1200	     4.123
  89.660	        20	    1200	     4.472
  89.680	        33	    1200	     5.745
  89.700	        18	    1200	     4.243
  89.720	        21	    1200	     4.583
  89.740	        22	    1200	     4.690
  89.760	        14	    1200	     3.742
  89.780	        12	    1200	     3.464
  89.800	        25	    1200	     5.000
  89.820	        20	    1200	     4.472
  89.840	        25	    1200	     5.000
  89.860	        15	    1200	     3.873
  89.880	        23	    1200	     4.796
  89.900	        21	    1200	     4.583
  89.920	        18	    1200	     4.243
  89.940	        19	    1200	     4.359
  89.960	        26	    1200	     5.099
  89.980	        21	    1200	     4.583
  90.000	        17	    1200	     4.123
