         ID: 

    Comment: 

Scan Type: Normal
Start Angle: 15 deg.
Stop Angle: 90 deg.
Num Points: 3751
Step Size: 0.02 deg.
Datafile Res: 1600 
Scan Rate: 1.000000
Scan Mode: Continuous
Wavelength: 1.540562

Diffractometer Optics:
		Detector:
			 Type: Fixed Slits
			 X2 Configuration: No
		Tube: 
			 Type: Fixed Slits
			 X2 Configuration: No


Axis[0]
	 Selected   : no 
	 Iterative  : no 
	 Start Angle: 0.000000 
	 Stop Angle : 0.000000 
	 Step Size  : 0.000000 
	 Oscillating: no 

Axis[1]
	 Selected   : no 
	 Iterative  : no 
	 Start Angle: 0.000000 
	 Stop Angle : 0.000000 
	 Step Size  : 0.000000 
	 Oscillating: no 

Axis[2]
	 Selected   : no 
	 Iterative  : no 
	 Start Angle: 0.000000 
	 Stop Angle : 0.000000 
	 Step Size  : 0.000000 
	 Oscillating: no 

Axis[3]
	 Selected   : no 
	 Iterative  : no 
	 Start Angle: 0.000000 
	 Stop Angle : 0.000000 
	 Step Size  : 0.000000 
	 Oscillating: no 

Axis[4]
	 Selected   : no 
	 Iterative  : no 
	 Start Angle: 0.000000 
	 Stop Angle : 0.000000 
	 Step Size  : 0.000000 
	 Oscillating: no 

Axis[5]
	 Selected   : no 
	 Iterative  : no 
	 Start Angle: 0.000000 
	 Stop Angle : 0.000000 
	 Step Size  : 0.000000 
	 Oscillating: no 

Axis[6]
	 Selected   : no 
	 Iterative  : no 
	 Start Angle: 0.000000 
	 Stop Angle : 0.000000 
	 Step Size  : 0.000000 
	 Oscillating: no 

Axis[7]
	 Selected   : no 
	 Iterative  : no 
	 Start Angle: 0.000000 
	 Stop Angle : 0.000000 
	 Step Size  : 0.000000 
	 Oscillating: no 

Axis[8]
	 Selected   : no 
	 Iterative  : no 
	 Start Angle: 0.000000 
	 Stop Angle : 0.000000 
	 Step Size  : 0.000000 
	 Oscillating: no 

Axis[9]
	 Selected   : no 
	 Iterative  : no 
	 Start Angle: 0.000000 
	 Stop Angle : 0.000000 
	 Step Size  : 0.000000 
	 Oscillating: no 




	   Deg.    Counts 	   Time 	    ESD   

Range 0
  15.000	       136	    1200	    11.662
  15.020	       111	    1200	    10.536
  15.040	       117	    1200	    10.817
  15.060	       105	    1200	    10.247
  15.080	       114	    1200	    10.677
  15.100	       102	    1200	    10.100
  15.120	       101	    1200	    10.050
  15.140	       108	    1200	    10.392
  15.160	       125	    1200	    11.180
  15.180	       106	    1200	    10.296
  15.200	        88	    1200	     9.381
  15.220	       109	    1200	    10.440
  15.240	       111	    1200	    10.536
  15.260	       112	    1200	    10.583
  15.280	        93	    1200	     9.644
  15.300	       137	    1200	    11.705
  15.320	       107	    1200	    10.344
  15.340	       125	    1200	    11.180
  15.360	       123	    1200	    11.091
  15.380	       125	    1200	    11.180
  15.400	        89	    1200	     9.434
  15.420	       131	    1200	    11.446
  15.440	       113	    1200	    10.630
  15.460	       102	    1200	    10.100
  15.480	       110	    1200	    10.488
  15.500	       125	    1200	    11.180
  15.520	        94	    1200	     9.695
  15.540	        95	    1200	     9.747
  15.560	       133	    1200	    11.533
  15.580	       116	    1200	    10.770
  15.600	       125	    1200	    11.180
  15.620	       117	    1200	    10.817
  15.640	       114	    1200	    10.677
  15.660	        95	    1200	     9.747
  15.680	       108	    1200	    10.392
  15.700	       124	    1200	    11.136
  15.720	       120	    1200	    10.954
  15.740	       127	    1200	    11.269
  15.760	       111	    1200	    10.536
  15.780	       104	    1200	    10.198
  15.800	       113	    1200	    10.630
  15.820	       120	    1200	    10.954
  15.840	       119	    1200	    10.909
  15.860	       122	    1200	    11.045
  15.880	       133	    1200	    11.533
  15.900	       109	    1200	    10.440
  15.920	       122	    1200	    11.045
  15.940	       124	    1200	    11.136
  15.960	       105	    1200	    10.247
  15.980	       115	    1200	    10.724
  16.000	       117	    1200	    10.817
  16.020	       117	    1200	    10.817
  16.040	       111	    1200	    10.536
  16.060	        93	    1200	     9.644
  16.080	       108	    1200	    10.392
  16.100	       114	    1200	    10.677
  16.120	       109	    1200	    10.440
  16.140	       132	    1200	    11.489
  16.160	       105	    1200	    10.247
  16.180	       123	    1200	    11.091
  16.200	       108	    1200	    10.392
  16.220	       125	    1200	    11.180
  16.240	       111	    1200	    10.536
  16.260	       116	    1200	    10.770
  16.280	       127	    1200	    11.269
  16.300	       121	    1200	    11.000
  16.320	       104	    1200	    10.198
  16.340	       100	    1200	    10.000
  16.360	       123	    1200	    11.091
  16.380	       113	    1200	    10.630
  16.400	       103	    1200	    10.149
  16.420	       104	    1200	    10.198
  16.440	       112	    1200	    10.583
  16.460	       112	    1200	    10.583
  16.480	       116	    1200	    10.770
  16.500	       123	    1200	    11.091
  16.520	       116	    1200	    10.770
  16.540	       118	    1200	    10.863
  16.560	        93	    1200	     9.644
  16.580	       107	    1200	    10.344
  16.600	       126	    1200	    11.225
  16.620	       137	    1200	    11.705
  16.640	       116	    1200	    10.770
  16.660	       111	    1200	    10.536
  16.680	       127	    1200	    11.269
  16.700	       104	    1200	    10.198
  16.720	       101	    1200	    10.050
  16.740	        99	    1200	     9.950
  16.760	       115	    1200	    10.724
  16.780	       121	    1200	    11.000
  16.800	        97	    1200	     9.849
  16.820	       114	    1200	    10.677
  16.840	       114	    1200	    10.677
  16.860	       144	    1200	    12.000
  16.880	       105	    1200	    10.247
  16.900	       133	    1200	    11.533
  16.920	       106	    1200	    10.296
  16.940	       131	    1200	    11.446
  16.960	       107	    1200	    10.344
  16.980	       111	    1200	    10.536
  17.000	       103	    1200	    10.149
  17.020	       115	    1200	    10.724
  17.040	       116	    1200	    10.770
  17.060	       111	    1200	    10.536
  17.080	       120	    1200	    10.954
  17.100	       101	    1200	    10.050
  17.120	       108	    1200	    10.392
  17.140	       103	    1200	    10.149
  17.160	       101	    1200	    10.050
  17.180	        97	    1200	     9.849
  17.200	       124	    1200	    11.136
  17.220	       102	    1200	    10.100
  17.240	        97	    1200	     9.849
  17.260	       107	    1200	    10.344
  17.280	        99	    1200	     9.950
  17.300	        99	    1200	     9.950
  17.320	       111	    1200	    10.536
  17.340	       101	    1200	    10.050
  17.360	       111	    1200	    10.536
  17.380	       125	    1200	    11.180
  17.400	       114	    1200	    10.677
  17.420	       115	    1200	    10.724
  17.440	       112	    1200	    10.583
  17.460	        94	    1200	     9.695
  17.480	       130	    1200	    11.402
  17.500	       138	    1200	    11.747
  17.520	       117	    1200	    10.817
  17.540	       106	    1200	    10.296
  17.560	       110	    1200	    10.488
  17.580	       106	    1200	    10.296
  17.600	       113	    1200	    10.630
  17.620	       114	    1200	    10.677
  17.640	       135	    1200	    11.619
  17.660	       131	    1200	    11.446
  17.680	        99	    1200	     9.950
  17.700	       105	    1200	    10.247
  17.720	       116	    1200	    10.770
  17.740	       122	    1200	    11.045
  17.760	       122	    1200	    11.045
  17.780	        98	    1200	     9.899
  17.800	       121	    1200	    11.000
  17.820	       118	    1200	    10.863
  17.840	        99	    1200	     9.950
  17.860	       121	    1200	    11.000
  17.880	       119	    1200	    10.909
  17.900	       101	    1200	    10.050
  17.920	       113	    1200	    10.630
  17.940	       126	    1200	    11.225
  17.960	       117	    1200	    10.817
  17.980	       119	    1200	    10.909
  18.000	       134	    1200	    11.576
  18.020	       125	    1200	    11.180
  18.040	       128	    1200	    11.314
  18.060	       118	    1200	    10.863
  18.080	        97	    1200	     9.849
  18.100	        88	    1200	     9.381
  18.120	       102	    1200	    10.100
  18.140	       117	    1200	    10.817
  18.160	       128	    1200	    11.314
  18.180	       104	    1200	    10.198
  18.200	       136	    1200	    11.662
  18.220	       114	    1200	    10.677
  18.240	       120	    1200	    10.954
  18.260	       106	    1200	    10.296
  18.280	       106	    1200	    10.296
  18.300	       138	    1200	    11.747
  18.320	       117	    1200	    10.817
  18.340	        99	    1200	     9.950
  18.360	       105	    1200	    10.247
  18.380	       105	    1200	    10.247
  18.400	       123	    1200	    11.091
  18.420	       116	    1200	    10.770
  18.440	       113	    1200	    10.630
  18.460	       119	    1200	    10.909
  18.480	       112	    1200	    10.583
  18.500	        96	    1200	     9.798
  18.520	       125	    1200	    11.180
  18.540	        99	    1200	     9.950
  18.560	       122	    1200	    11.045
  18.580	       111	    1200	    10.536
  18.600	       128	    1200	    11.314
  18.620	       107	    1200	    10.344
  18.640	       118	    1200	    10.863
  18.660	       107	    1200	    10.344
  18.680	       124	    1200	    11.136
  18.700	       108	    1200	    10.392
  18.720	       105	    1200	    10.247
  18.740	        79	    1200	     8.888
  18.760	       100	    1200	    10.000
  18.780	       116	    1200	    10.770
  18.800	       107	    1200	    10.344
  18.820	       122	    1200	    11.045
  18.840	       110	    1200	    10.488
  18.860	       100	    1200	    10.000
  18.880	       115	    1200	    10.724
  18.900	       128	    1200	    11.314
  18.920	       110	    1200	    10.488
  18.940	       111	    1200	    10.536
  18.960	       108	    1200	    10.392
  18.980	       123	    1200	    11.091
  19.000	       118	    1200	    10.863
  19.020	       111	    1200	    10.536
  19.040	       111	    1200	    10.536
  19.060	       111	    1200	    10.536
  19.080	       123	    1200	    11.091
  19.100	       127	    1200	    11.269
  19.120	       116	    1200	    10.770
  19.140	       110	    1200	    10.488
  19.160	       117	    1200	    10.817
  19.180	       126	    1200	    11.225
  19.200	       112	    1200	    10.583
  19.220	       115	    1200	    10.724
  19.240	       110	    1200	    10.488
  19.260	        99	    1200	     9.950
  19.280	       123	    1200	    11.091
  19.300	       106	    1200	    10.296
  19.320	       118	    1200	    10.863
  19.340	       109	    1200	    10.440
  19.360	       115	    1200	    10.724
  19.380	       106	    1200	    10.296
  19.400	       121	    1200	    11.000
  19.420	       108	    1200	    10.392
  19.440	       117	    1200	    10.817
  19.460	       120	    1200	    10.954
  19.480	       113	    1200	    10.630
  19.500	       109	    1200	    10.440
  19.520	       102	    1200	    10.100
  19.540	        93	    1200	     9.644
  19.560	       115	    1200	    10.724
  19.580	       106	    1200	    10.296
  19.600	       107	    1200	    10.344
  19.620	        92	    1200	     9.592
  19.640	       115	    1200	    10.724
  19.660	       124	    1200	    11.136
  19.680	       115	    1200	    10.724
  19.700	       110	    1200	    10.488
  19.720	       111	    1200	    10.536
  19.740	       112	    1200	    10.583
  19.760	        98	    1200	     9.899
  19.780	       123	    1200	    11.091
  19.800	       117	    1200	    10.817
  19.820	        98	    1200	     9.899
  19.840	       102	    1200	    10.100
  19.860	       106	    1200	    10.296
  19.880	       104	    1200	    10.198
  19.900	       105	    1200	    10.247
  19.920	       106	    1200	    10.296
  19.940	       129	    1200	    11.358
  19.960	       117	    1200	    10.817
  19.980	        94	    1200	     9.695
  20.000	       107	    1200	    10.344
  20.020	       107	    1200	    10.344
  20.040	       121	    1200	    11.000
  20.060	       101	    1200	    10.050
  20.080	       126	    1200	    11.225
  20.100	       118	    1200	    10.863
  20.120	       115	    1200	    10.724
  20.140	       101	    1200	    10.050
  20.160	        95	    1200	     9.747
  20.180	       122	    1200	    11.045
  20.200	       118	    1200	    10.863
  20.220	       111	    1200	    10.536
  20.240	       103	    1200	    10.149
  20.260	       117	    1200	    10.817
  20.280	       123	    1200	    11.091
  20.300	       113	    1200	    10.630
  20.320	       112	    1200	    10.583
  20.340	        92	    1200	     9.592
  20.360	        84	    1200	     9.165
  20.380	       104	    1200	    10.198
  20.400	       102	    1200	    10.100
  20.420	       104	    1200	    10.198
  20.440	       106	    1200	    10.296
  20.460	       111	    1200	    10.536
  20.480	       128	    1200	    11.314
  20.500	       115	    1200	    10.724
  20.520	       106	    1200	    10.296
  20.540	       116	    1200	    10.770
  20.560	        96	    1200	     9.798
  20.580	       111	    1200	    10.536
  20.600	       116	    1200	    10.770
  20.620	        82	    1200	     9.055
  20.640	       115	    1200	    10.724
  20.660	       102	    1200	    10.100
  20.680	       120	    1200	    10.954
  20.700	       111	    1200	    10.536
  20.720	       115	    1200	    10.724
  20.740	       111	    1200	    10.536
  20.760	       123	    1200	    11.091
  20.780	       102	    1200	    10.100
  20.800	       113	    1200	    10.630
  20.820	       103	    1200	    10.149
  20.840	       122	    1200	    11.045
  20.860	       106	    1200	    10.296
  20.880	       103	    1200	    10.149
  20.900	       118	    1200	    10.863
  20.920	       119	    1200	    10.909
  20.940	       107	    1200	    10.344
  20.960	       101	    1200	    10.050
  20.980	       117	    1200	    10.817
  21.000	       110	    1200	    10.488
  21.020	       105	    1200	    10.247
  21.040	       119	    1200	    10.909
  21.060	       103	    1200	    10.149
  21.080	       124	    1200	    11.136
  21.100	        97	    1200	     9.849
  21.120	       106	    1200	    10.296
  21.140	       114	    1200	    10.677
  21.160	        88	    1200	     9.381
  21.180	        97	    1200	     9.849
  21.200	       135	    1200	    11.619
  21.220	       106	    1200	    10.296
  21.240	       109	    1200	    10.440
  21.260	       126	    1200	    11.225
  21.280	       130	    1200	    11.402
  21.300	       113	    1200	    10.630
  21.320	       127	    1200	    11.269
  21.340	       106	    1200	    10.296
  21.360	       100	    1200	    10.000
  21.380	       112	    1200	    10.583
  21.400	        90	    1200	     9.487
  21.420	       110	    1200	    10.488
  21.440	       113	    1200	    10.630
  21.460	       118	    1200	    10.863
  21.480	       102	    1200	    10.100
  21.500	       114	    1200	    10.677
  21.520	        99	    1200	     9.950
  21.540	       101	    1200	    10.050
  21.560	        97	    1200	     9.849
  21.580	        90	    1200	     9.487
  21.600	       122	    1200	    11.045
  21.620	       124	    1200	    11.136
  21.640	       105	    1200	    10.247
  21.660	        93	    1200	     9.644
  21.680	       103	    1200	    10.149
  21.700	        91	    1200	     9.539
  21.720	        85	    1200	     9.220
  21.740	       118	    1200	    10.863
  21.760	       105	    1200	    10.247
  21.780	       108	    1200	    10.392
  21.800	        92	    1200	     9.592
  21.820	       120	    1200	    10.954
  21.840	       135	    1200	    11.619
  21.860	       107	    1200	    10.344
  21.880	       121	    1200	    11.000
  21.900	       121	    1200	    11.000
  21.920	       113	    1200	    10.630
  21.940	        94	    1200	     9.695
  21.960	        93	    1200	     9.644
  21.980	       109	    1200	    10.440
  22.000	       106	    1200	    10.296
  22.020	        97	    1200	     9.849
  22.040	       112	    1200	    10.583
  22.060	        91	    1200	     9.539
  22.080	       107	    1200	    10.344
  22.100	       104	    1200	    10.198
  22.120	       110	    1200	    10.488
  22.140	        93	    1200	     9.644
  22.160	       115	    1200	    10.724
  22.180	       126	    1200	    11.225
  22.200	       103	    1200	    10.149
  22.220	       105	    1200	    10.247
  22.240	       111	    1200	    10.536
  22.260	       111	    1200	    10.536
  22.280	        99	    1200	     9.950
  22.300	       112	    1200	    10.583
  22.320	       126	    1200	    11.225
  22.340	       132	    1200	    11.489
  22.360	       116	    1200	    10.770
  22.380	       105	    1200	    10.247
  22.400	       119	    1200	    10.909
  22.420	       130	    1200	    11.402
  22.440	       117	    1200	    10.817
  22.460	       151	    1200	    12.288
  22.480	       156	    1200	    12.490
  22.500	       142	    1200	    11.916
  22.520	       148	    1200	    12.166
  22.540	       147	    1200	    12.124
  22.560	       155	    1200	    12.450
  22.580	       153	    1200	    12.369
  22.600	       130	    1200	    11.402
  22.620	       134	    1200	    11.576
  22.640	       126	    1200	    11.225
  22.660	       102	    1200	    10.100
  22.680	       117	    1200	    10.817
  22.700	       126	    1200	    11.225
  22.720	       101	    1200	    10.050
  22.740	        98	    1200	     9.899
  22.760	        94	    1200	     9.695
  22.780	       106	    1200	    10.296
  22.800	        98	    1200	     9.899
  22.820	        98	    1200	     9.899
  22.840	       102	    1200	    10.100
  22.860	        93	    1200	     9.644
  22.880	       104	    1200	    10.198
  22.900	        80	    1200	     8.944
  22.920	        86	    1200	     9.274
  22.940	       105	    1200	    10.247
  22.960	       110	    1200	    10.488
  22.980	       114	    1200	    10.677
  23.000	       107	    1200	    10.344
  23.020	       109	    1200	    10.440
  23.040	       121	    1200	    11.000
  23.060	        96	    1200	     9.798
  23.080	       119	    1200	    10.909
  23.100	        99	    1200	     9.950
  23.120	       101	    1200	    10.050
  23.140	       101	    1200	    10.050
  23.160	       110	    1200	    10.488
  23.180	        87	    1200	     9.327
  23.200	        74	    1200	     8.602
  23.220	        79	    1200	     8.888
  23.240	        96	    1200	     9.798
  23.260	       104	    1200	    10.198
  23.280	        92	    1200	     9.592
  23.300	       102	    1200	    10.100
  23.320	        87	    1200	     9.327
  23.340	       105	    1200	    10.247
  23.360	       113	    1200	    10.630
  23.380	       117	    1200	    10.817
  23.400	       101	    1200	    10.050
  23.420	       101	    1200	    10.050
  23.440	        95	    1200	     9.747
  23.460	        84	    1200	     9.165
  23.480	        99	    1200	     9.950
  23.500	       116	    1200	    10.770
  23.520	       120	    1200	    10.954
  23.540	       103	    1200	    10.149
  23.560	       101	    1200	    10.050
  23.580	       106	    1200	    10.296
  23.600	       103	    1200	    10.149
  23.620	        93	    1200	     9.644
  23.640	       106	    1200	    10.296
  23.660	        90	    1200	     9.487
  23.680	        88	    1200	     9.381
  23.700	        82	    1200	     9.055
  23.720	       100	    1200	    10.000
  23.740	        90	    1200	     9.487
  23.760	        91	    1200	     9.539
  23.780	        86	    1200	     9.274
  23.800	       109	    1200	    10.440
  23.820	        90	    1200	     9.487
  23.840	        91	    1200	     9.539
  23.860	       101	    1200	    10.050
  23.880	        81	    1200	     9.000
  23.900	        92	    1200	     9.592
  23.920	        93	    1200	     9.644
  23.940	       100	    1200	    10.000
  23.960	        94	    1200	     9.695
  23.980	        95	    1200	     9.747
  24.000	        95	    1200	     9.747
  24.020	       110	    1200	    10.488
  24.040	       111	    1200	    10.536
  24.060	        97	    1200	     9.849
  24.080	        87	    1200	     9.327
  24.100	        82	    1200	     9.055
  24.120	        84	    1200	     9.165
  24.140	       114	    1200	    10.677
  24.160	        96	    1200	     9.798
  24.180	        75	    1200	     8.660
  24.200	        78	    1200	     8.832
  24.220	        78	    1200	     8.832
  24.240	        79	    1200	     8.888
  24.260	        99	    1200	     9.950
  24.280	        91	    1200	     9.539
  24.300	       110	    1200	    10.488
  24.320	        85	    1200	     9.220
  24.340	        78	    1200	     8.832
  24.360	        93	    1200	     9.644
  24.380	        84	    1200	     9.165
  24.400	       117	    1200	    10.817
  24.420	        97	    1200	     9.849
  24.440	        93	    1200	     9.644
  24.460	        95	    1200	     9.747
  24.480	        81	    1200	     9.000
  24.500	        92	    1200	     9.592
  24.520	        84	    1200	     9.165
  24.540	        81	    1200	     9.000
  24.560	        81	    1200	     9.000
  24.580	        96	    1200	     9.798
  24.600	       100	    1200	    10.000
  24.620	       102	    1200	    10.100
  24.640	        75	    1200	     8.660
  24.660	       106	    1200	    10.296
  24.680	        74	    1200	     8.602
  24.700	        95	    1200	     9.747
  24.720	        87	    1200	     9.327
  24.740	        88	    1200	     9.381
  24.760	        86	    1200	     9.274
  24.780	        76	    1200	     8.718
  24.800	        76	    1200	     8.718
  24.820	        67	    1200	     8.185
  24.840	        71	    1200	     8.426
  24.860	        80	    1200	     8.944
  24.880	        75	    1200	     8.660
  24.900	        80	    1200	     8.944
  24.920	        82	    1200	     9.055
  24.940	        82	    1200	     9.055
  24.960	        98	    1200	     9.899
  24.980	        98	    1200	     9.899
  25.000	        90	    1200	     9.487
  25.020	        78	    1200	     8.832
  25.040	        73	    1200	     8.544
  25.060	        88	    1200	     9.381
  25.080	        84	    1200	     9.165
  25.100	        88	    1200	     9.381
  25.120	        86	    1200	     9.274
  25.140	        96	    1200	     9.798
  25.160	        78	    1200	     8.832
  25.180	        94	    1200	     9.695
  25.200	        79	    1200	     8.888
  25.220	        70	    1200	     8.367
  25.240	        84	    1200	     9.165
  25.260	        82	    1200	     9.055
  25.280	        67	    1200	     8.185
  25.300	        76	    1200	     8.718
  25.320	        85	    1200	     9.220
  25.340	        72	    1200	     8.485
  25.360	        84	    1200	     9.165
  25.380	        71	    1200	     8.426
  25.400	        73	    1200	     8.544
  25.420	        92	    1200	     9.592
  25.440	        88	    1200	     9.381
  25.460	        84	    1200	     9.165
  25.480	        80	    1200	     8.944
  25.500	        71	    1200	     8.426
  25.520	        77	    1200	     8.775
  25.540	        83	    1200	     9.110
  25.560	        85	    1200	     9.220
  25.580	        82	    1200	     9.055
  25.600	        77	    1200	     8.775
  25.620	        67	    1200	     8.185
  25.640	        60	    1200	     7.746
  25.660	        82	    1200	     9.055
  25.680	        73	    1200	     8.544
  25.700	        86	    1200	     9.274
  25.720	        74	    1200	     8.602
  25.740	        68	    1200	     8.246
  25.760	        76	    1200	     8.718
  25.780	        69	    1200	     8.307
  25.800	        67	    1200	     8.185
  25.820	        68	    1200	     8.246
  25.840	        77	    1200	     8.775
  25.860	        61	    1200	     7.810
  25.880	        74	    1200	     8.602
  25.900	        83	    1200	     9.110
  25.920	        76	    1200	     8.718
  25.940	        75	    1200	     8.660
  25.960	        75	    1200	     8.660
  25.980	        85	    1200	     9.220
  26.000	        81	    1200	     9.000
  26.020	        83	    1200	     9.110
  26.040	        76	    1200	     8.718
  26.060	        69	    1200	     8.307
  26.080	        77	    1200	     8.775
  26.100	        51	    1200	     7.141
  26.120	        62	    1200	     7.874
  26.140	        61	    1200	     7.810
  26.160	        65	    1200	     8.062
  26.180	        78	    1200	     8.832
  26.200	        60	    1200	     7.746
  26.220	        73	    1200	     8.544
  26.240	        55	    1200	     7.416
  26.260	        76	    1200	     8.718
  26.280	        75	    1200	     8.660
  26.300	        83	    1200	     9.110
  26.320	        77	    1200	     8.775
  26.340	        67	    1200	     8.185
  26.360	        74	    1200	     8.602
  26.380	        71	    1200	     8.426
  26.400	        50	    1200	     7.071
  26.420	        67	    1200	     8.185
  26.440	        58	    1200	     7.616
  26.460	        74	    1200	     8.602
  26.480	        68	    1200	     8.246
  26.500	        49	    1200	     7.000
  26.520	        62	    1200	     7.874
  26.540	        61	    1200	     7.810
  26.560	        56	    1200	     7.483
  26.580	        74	    1200	     8.602
  26.600	        64	    1200	     8.000
  26.620	        71	    1200	     8.426
  26.640	        74	    1200	     8.602
  26.660	        95	    1200	     9.747
  26.680	        61	    1200	     7.810
  26.700	        68	    1200	     8.246
  26.720	        60	    1200	     7.746
  26.740	        72	    1200	     8.485
  26.760	        69	    1200	     8.307
  26.780	        60	    1200	     7.746
  26.800	        63	    1200	     7.937
  26.820	        82	    1200	     9.055
  26.840	        64	    1200	     8.000
  26.860	        69	    1200	     8.307
  26.880	        67	    1200	     8.185
  26.900	        55	    1200	     7.416
  26.920	        82	    1200	     9.055
  26.940	        62	    1200	     7.874
  26.960	        46	    1200	     6.782
  26.980	        61	    1200	     7.810
  27.000	        63	    1200	     7.937
  27.020	        77	    1200	     8.775
  27.040	        60	    1200	     7.746
  27.060	        53	    1200	     7.280
  27.080	        62	    1200	     7.874
  27.100	        63	    1200	     7.937
  27.120	        64	    1200	     8.000
  27.140	        75	    1200	     8.660
  27.160	        49	    1200	     7.000
  27.180	        60	    1200	     7.746
  27.200	        46	    1200	     6.782
  27.220	        66	    1200	     8.124
  27.240	        52	    1200	     7.211
  27.260	        72	    1200	     8.485
  27.280	        68	    1200	     8.246
  27.300	        60	    1200	     7.746
  27.320	        72	    1200	     8.485
  27.340	        71	    1200	     8.426
  27.360	        60	    1200	     7.746
  27.380	        67	    1200	     8.185
  27.400	        76	    1200	     8.718
  27.420	        60	    1200	     7.746
  27.440	        55	    1200	     7.416
  27.460	        53	    1200	     7.280
  27.480	        57	    1200	     7.550
  27.500	        58	    1200	     7.616
  27.520	        71	    1200	     8.426
  27.540	        68	    1200	     8.246
  27.560	        56	    1200	     7.483
  27.580	        47	    1200	     6.856
  27.600	        75	    1200	     8.660
  27.620	        49	    1200	     7.000
  27.640	        51	    1200	     7.141
  27.660	        55	    1200	     7.416
  27.680	        54	    1200	     7.348
  27.700	        68	    1200	     8.246
  27.720	        66	    1200	     8.124
  27.740	        52	    1200	     7.211
  27.760	        63	    1200	     7.937
  27.780	        57	    1200	     7.550
  27.800	        57	    1200	     7.550
  27.820	        67	    1200	     8.185
  27.840	        53	    1200	     7.280
  27.860	        64	    1200	     8.000
  27.880	        59	    1200	     7.681
  27.900	        66	    1200	     8.124
  27.920	        63	    1200	     7.937
  27.940	        54	    1200	     7.348
  27.960	        56	    1200	     7.483
  27.980	        55	    1200	     7.416
  28.000	        53	    1200	     7.280
  28.020	        59	    1200	     7.681
  28.040	        54	    1200	     7.348
  28.060	        60	    1200	     7.746
  28.080	        54	    1200	     7.348
  28.100	        48	    1200	     6.928
  28.120	        54	    1200	     7.348
  28.140	        49	    1200	     7.000
  28.160	        47	    1200	     6.856
  28.180	        39	    1200	     6.245
  28.200	        49	    1200	     7.000
  28.220	        43	    1200	     6.557
  28.240	        57	    1200	     7.550
  28.260	        48	    1200	     6.928
  28.280	        42	    1200	     6.481
  28.300	        54	    1200	     7.348
  28.320	        48	    1200	     6.928
  28.340	        46	    1200	     6.782
  28.360	        43	    1200	     6.557
  28.380	        47	    1200	     6.856
  28.400	        56	    1200	     7.483
  28.420	        43	    1200	     6.557
  28.440	        61	    1200	     7.810
  28.460	        48	    1200	     6.928
  28.480	        48	    1200	     6.928
  28.500	        44	    1200	     6.633
  28.520	        45	    1200	     6.708
  28.540	        46	    1200	     6.782
  28.560	        43	    1200	     6.557
  28.580	        52	    1200	     7.211
  28.600	        48	    1200	     6.928
  28.620	        38	    1200	     6.164
  28.640	        53	    1200	     7.280
  28.660	        42	    1200	     6.481
  28.680	        36	    1200	     6.000
  28.700	        49	    1200	     7.000
  28.720	        45	    1200	     6.708
  28.740	        51	    1200	     7.141
  28.760	        37	    1200	     6.083
  28.780	        44	    1200	     6.633
  28.800	        54	    1200	     7.348
  28.820	        65	    1200	     8.062
  28.840	        53	    1200	     7.280
  28.860	        59	    1200	     7.681
  28.880	        32	    1200	     5.657
  28.900	        38	    1200	     6.164
  28.920	        53	    1200	     7.280
  28.940	        50	    1200	     7.071
  28.960	        46	    1200	     6.782
  28.980	        48	    1200	     6.928
  29.000	        57	    1200	     7.550
  29.020	        38	    1200	     6.164
  29.040	        41	    1200	     6.403
  29.060	        60	    1200	     7.746
  29.080	        48	    1200	     6.928
  29.100	        59	    1200	     7.681
  29.120	        39	    1200	     6.245
  29.140	        45	    1200	     6.708
  29.160	        31	    1200	     5.568
  29.180	        52	    1200	     7.211
  29.200	        37	    1200	     6.083
  29.220	        43	    1200	     6.557
  29.240	        42	    1200	     6.481
  29.260	        34	    1200	     5.831
  29.280	        41	    1200	     6.403
  29.300	        29	    1200	     5.385
  29.320	        33	    1200	     5.745
  29.340	        32	    1200	     5.657
  29.360	        40	    1200	     6.325
  29.380	        54	    1200	     7.348
  29.400	        31	    1200	     5.568
  29.420	        44	    1200	     6.633
  29.440	        43	    1200	     6.557
  29.460	        40	    1200	     6.325
  29.480	        44	    1200	     6.633
  29.500	        44	    1200	     6.633
  29.520	        42	    1200	     6.481
  29.540	        37	    1200	     6.083
  29.560	        29	    1200	     5.385
  29.580	        45	    1200	     6.708
  29.600	        42	    1200	     6.481
  29.620	        39	    1200	     6.245
  29.640	        31	    1200	     5.568
  29.660	        44	    1200	     6.633
  29.680	        41	    1200	     6.403
  29.700	        49	    1200	     7.000
  29.720	        44	    1200	     6.633
  29.740	        36	    1200	     6.000
  29.760	        42	    1200	     6.481
  29.780	        31	    1200	     5.568
  29.800	        45	    1200	     6.708
  29.820	        32	    1200	     5.657
  29.840	        42	    1200	     6.481
  29.860	        22	    1200	     4.690
  29.880	        48	    1200	     6.928
  29.900	        53	    1200	     7.280
  29.920	        30	    1200	     5.477
  29.940	        39	    1200	     6.245
  29.960	        41	    1200	     6.403
  29.980	        44	    1200	     6.633
  30.000	        44	    1200	     6.633
  30.020	        46	    1200	     6.782
  30.040	        44	    1200	     6.633
  30.060	        40	    1200	     6.325
  30.080	        33	    1200	     5.745
  30.100	        42	    1200	     6.481
  30.120	        45	    1200	     6.708
  30.140	        46	    1200	     6.782
  30.160	        35	    1200	     5.916
  30.180	        43	    1200	     6.557
  30.200	        38	    1200	     6.164
  30.220	        40	    1200	     6.325
  30.240	        31	    1200	     5.568
  30.260	        40	    1200	     6.325
  30.280	        34	    1200	     5.831
  30.300	        36	    1200	     6.000
  30.320	        44	    1200	     6.633
  30.340	        45	    1200	     6.708
  30.360	        39	    1200	     6.245
  30.380	        28	    1200	     5.292
  30.400	        40	    1200	     6.325
  30.420	        31	    1200	     5.568
  30.440	        38	    1200	     6.164
  30.460	        36	    1200	     6.000
  30.480	        56	    1200	     7.483
  30.500	        49	    1200	     7.000
  30.520	        49	    1200	     7.000
  30.540	        34	    1200	     5.831
  30.560	        33	    1200	     5.745
  30.580	        45	    1200	     6.708
  30.600	        47	    1200	     6.856
  30.620	        38	    1200	     6.164
  30.640	        36	    1200	     6.000
  30.660	        36	    1200	     6.000
  30.680	        31	    1200	     5.568
  30.700	        39	    1200	     6.245
  30.720	        52	    1200	     7.211
  30.740	        41	    1200	     6.403
  30.760	        42	    1200	     6.481
  30.780	        41	    1200	     6.403
  30.800	        44	    1200	     6.633
  30.820	        42	    1200	     6.481
  30.840	        41	    1200	     6.403
  30.860	        41	    1200	     6.403
  30.880	        44	    1200	     6.633
  30.900	        41	    1200	     6.403
  30.920	        44	    1200	     6.633
  30.940	        51	    1200	     7.141
  30.960	        53	    1200	     7.280
  30.980	        39	    1200	     6.245
  31.000	        44	    1200	     6.633
  31.020	        29	    1200	     5.385
  31.040	        50	    1200	     7.071
  31.060	        50	    1200	     7.071
  31.080	        63	    1200	     7.937
  31.100	        47	    1200	     6.856
  31.120	        47	    1200	     6.856
  31.140	        47	    1200	     6.856
  31.160	        33	    1200	     5.745
  31.180	        43	    1200	     6.557
  31.200	        38	    1200	     6.164
  31.220	        54	    1200	     7.348
  31.240	        53	    1200	     7.280
  31.260	        53	    1200	     7.280
  31.280	        58	    1200	     7.616
  31.300	        47	    1200	     6.856
  31.320	        56	    1200	     7.483
  31.340	        56	    1200	     7.483
  31.360	        62	    1200	     7.874
  31.380	        65	    1200	     8.062
  31.400	        73	    1200	     8.544
  31.420	        81	    1200	     9.000
  31.440	        86	    1200	     9.274
  31.460	        88	    1200	     9.381
  31.480	        74	    1200	     8.602
  31.500	        83	    1200	     9.110
  31.520	        74	    1200	     8.602
  31.540	        90	    1200	     9.487
  31.560	        89	    1200	     9.434
  31.580	        83	    1200	     9.110
  31.600	        98	    1200	     9.899
  31.620	       103	    1200	    10.149
  31.640	        96	    1200	     9.798
  31.660	       103	    1200	    10.149
  31.680	        98	    1200	     9.899
  31.700	       107	    1200	    10.344
  31.720	       108	    1200	    10.392
  31.740	        95	    1200	     9.747
  31.760	       101	    1200	    10.050
  31.780	       115	    1200	    10.724
  31.800	       126	    1200	    11.225
  31.820	       152	    1200	    12.329
  31.840	       173	    1200	    13.153
  31.860	       164	    1200	    12.806
  31.880	       221	    1200	    14.866
  31.900	       268	    1200	    16.371
  31.920	       318	    1200	    17.833
  31.940	       381	    1200	    19.519
  31.960	       439	    1200	    20.952
  31.980	       531	    1200	    23.043
  32.000	       705	    1200	    26.552
  32.020	       820	    1200	    28.636
  32.040	      1003	    1200	    31.670
  32.060	      1211	    1200	    34.799
  32.080	      1523	    1200	    39.026
  32.100	      1764	    1200	    42.000
  32.120	      2012	    1200	    44.855
  32.140	      2223	    1200	    47.149
  32.160	      2287	    1200	    47.823
  32.180	      2441	    1200	    49.406
  32.200	      2405	    1200	    49.041
  32.220	      2252	    1200	    47.455
  32.240	      2067	    1200	    45.464
  32.260	      1865	    1200	    43.186
  32.280	      1605	    1200	    40.062
  32.300	      1361	    1200	    36.892
  32.320	      1115	    1200	    33.392
  32.340	       929	    1200	    30.480
  32.360	       742	    1200	    27.240
  32.380	       613	    1200	    24.759
  32.400	       478	    1200	    21.863
  32.420	       370	    1200	    19.235
  32.440	       337	    1200	    18.358
  32.460	       246	    1200	    15.684
  32.480	       230	    1200	    15.166
  32.500	       175	    1200	    13.229
  32.520	       147	    1200	    12.124
  32.540	       116	    1200	    10.770
  32.560	       115	    1200	    10.724
  32.580	       127	    1200	    11.269
  32.600	        89	    1200	     9.434
  32.620	       103	    1200	    10.149
  32.640	        92	    1200	     9.592
  32.660	        82	    1200	     9.055
  32.680	        83	    1200	     9.110
  32.700	        65	    1200	     8.062
  32.720	        65	    1200	     8.062
  32.740	        57	    1200	     7.550
  32.760	        77	    1200	     8.775
  32.780	        74	    1200	     8.602
  32.800	        76	    1200	     8.718
  32.820	        60	    1200	     7.746
  32.840	        70	    1200	     8.367
  32.860	        68	    1200	     8.246
  32.880	        50	    1200	     7.071
  32.900	        56	    1200	     7.483
  32.920	        55	    1200	     7.416
  32.940	        39	    1200	     6.245
  32.960	        41	    1200	     6.403
  32.980	        65	    1200	     8.062
  33.000	        57	    1200	     7.550
  33.020	        49	    1200	     7.000
  33.040	        49	    1200	     7.000
  33.060	        39	    1200	     6.245
  33.080	        31	    1200	     5.568
  33.100	        48	    1200	     6.928
  33.120	        38	    1200	     6.164
  33.140	        47	    1200	     6.856
  33.160	        40	    1200	     6.325
  33.180	        48	    1200	     6.928
  33.200	        34	    1200	     5.831
  33.220	        32	    1200	     5.657
  33.240	        46	    1200	     6.782
  33.260	        35	    1200	     5.916
  33.280	        44	    1200	     6.633
  33.300	        37	    1200	     6.083
  33.320	        39	    1200	     6.245
  33.340	        50	    1200	     7.071
  33.360	        25	    1200	     5.000
  33.380	        43	    1200	     6.557
  33.400	        38	    1200	     6.164
  33.420	        34	    1200	     5.831
  33.440	        32	    1200	     5.657
  33.460	        35	    1200	     5.916
  33.480	        41	    1200	     6.403
  33.500	        48	    1200	     6.928
  33.520	        36	    1200	     6.000
  33.540	        37	    1200	     6.083
  33.560	        35	    1200	     5.916
  33.580	        45	    1200	     6.708
  33.600	        42	    1200	     6.481
  33.620	        30	    1200	     5.477
  33.640	        27	    1200	     5.196
  33.660	        39	    1200	     6.245
  33.680	        35	    1200	     5.916
  33.700	        31	    1200	     5.568
  33.720	        38	    1200	     6.164
  33.740	        33	    1200	     5.745
  33.760	        32	    1200	     5.657
  33.780	        35	    1200	     5.916
  33.800	        33	    1200	     5.745
  33.820	        39	    1200	     6.245
  33.840	        28	    1200	     5.292
  33.860	        32	    1200	     5.657
  33.880	        33	    1200	     5.745
  33.900	        32	    1200	     5.657
  33.920	        43	    1200	     6.557
  33.940	        36	    1200	     6.000
  33.960	        23	    1200	     4.796
  33.980	        28	    1200	     5.292
  34.000	        35	    1200	     5.916
  34.020	        25	    1200	     5.000
  34.040	        35	    1200	     5.916
  34.060	        23	    1200	     4.796
  34.080	        27	    1200	     5.196
  34.100	        25	    1200	     5.000
  34.120	        27	    1200	     5.196
  34.140	        38	    1200	     6.164
  34.160	        24	    1200	     4.899
  34.180	        41	    1200	     6.403
  34.200	        28	    1200	     5.292
  34.220	        36	    1200	     6.000
  34.240	        37	    1200	     6.083
  34.260	        38	    1200	     6.164
  34.280	        35	    1200	     5.916
  34.300	        28	    1200	     5.292
  34.320	        31	    1200	     5.568
  34.340	        46	    1200	     6.782
  34.360	        38	    1200	     6.164
  34.380	        26	    1200	     5.099
  34.400	        31	    1200	     5.568
  34.420	        30	    1200	     5.477
  34.440	        29	    1200	     5.385
  34.460	        36	    1200	     6.000
  34.480	        30	    1200	     5.477
  34.500	        32	    1200	     5.657
  34.520	        33	    1200	     5.745
  34.540	        27	    1200	     5.196
  34.560	        30	    1200	     5.477
  34.580	        29	    1200	     5.385
  34.600	        34	    1200	     5.831
  34.620	        23	    1200	     4.796
  34.640	        28	    1200	     5.292
  34.660	        26	    1200	     5.099
  34.680	        30	    1200	     5.477
  34.700	        32	    1200	     5.657
  34.720	        26	    1200	     5.099
  34.740	        32	    1200	     5.657
  34.760	        19	    1200	     4.359
  34.780	        21	    1200	     4.583
  34.800	        19	    1200	     4.359
  34.820	        16	    1200	     4.000
  34.840	        29	    1200	     5.385
  34.860	        26	    1200	     5.099
  34.880	        36	    1200	     6.000
  34.900	        28	    1200	     5.292
  34.920	        23	    1200	     4.796
  34.940	        19	    1200	     4.359
  34.960	        34	    1200	     5.831
  34.980	        28	    1200	     5.292
  35.000	        32	    1200	     5.657
  35.020	        25	    1200	     5.000
  35.040	        22	    1200	     4.690
  35.060	        23	    1200	     4.796
  35.080	        17	    1200	     4.123
  35.100	        20	    1200	     4.472
  35.120	        22	    1200	     4.690
  35.140	        23	    1200	     4.796
  35.160	        15	    1200	     3.873
  35.180	        17	    1200	     4.123
  35.200	        24	    1200	     4.899
  35.220	        24	    1200	     4.899
  35.240	        33	    1200	     5.745
  35.260	        26	    1200	     5.099
  35.280	        27	    1200	     5.196
  35.300	        19	    1200	     4.359
  35.320	        34	    1200	     5.831
  35.340	        27	    1200	     5.196
  35.360	        30	    1200	     5.477
  35.380	        22	    1200	     4.690
  35.400	        32	    1200	     5.657
  35.420	        21	    1200	     4.583
  35.440	        26	    1200	     5.099
  35.460	        23	    1200	     4.796
  35.480	        34	    1200	     5.831
  35.500	        25	    1200	     5.000
  35.520	        27	    1200	     5.196
  35.540	        20	    1200	     4.472
  35.560	        19	    1200	     4.359
  35.580	        27	    1200	     5.196
  35.600	        27	    1200	     5.196
  35.620	        20	    1200	     4.472
  35.640	        23	    1200	     4.796
  35.660	        24	    1200	     4.899
  35.680	        24	    1200	     4.899
  35.700	        21	    1200	     4.583
  35.720	        15	    1200	     3.873
  35.740	        32	    1200	     5.657
  35.760	        22	    1200	     4.690
  35.780	        14	    1200	     3.742
  35.800	        22	    1200	     4.690
  35.820	        13	    1200	     3.606
  35.840	        18	    1200	     4.243
  35.860	        28	    1200	     5.292
  35.880	        20	    1200	     4.472
  35.900	        23	    1200	     4.796
  35.920	        27	    1200	     5.196
  35.940	        15	    1200	     3.873
  35.960	        18	    1200	     4.243
  35.980	        23	    1200	     4.796
  36.000	        31	    1200	     5.568
  36.020	        18	    1200	     4.243
  36.040	        24	    1200	     4.899
  36.060	        28	    1200	     5.292
  36.080	        26	    1200	     5.099
  36.100	        19	    1200	     4.359
  36.120	        19	    1200	     4.359
  36.140	        19	    1200	     4.359
  36.160	        21	    1200	     4.583
  36.180	        25	    1200	     5.000
  36.200	        23	    1200	     4.796
  36.220	        28	    1200	     5.292
  36.240	        24	    1200	     4.899
  36.260	        25	    1200	     5.000
  36.280	        24	    1200	     4.899
  36.300	        19	    1200	     4.359
  36.320	        16	    1200	     4.000
  36.340	        20	    1200	     4.472
  36.360	        21	    1200	     4.583
  36.380	        27	    1200	     5.196
  36.400	        23	    1200	     4.796
  36.420	        16	    1200	     4.000
  36.440	        32	    1200	     5.657
  36.460	        24	    1200	     4.899
  36.480	        20	    1200	     4.472
  36.500	        20	    1200	     4.472
  36.520	        21	    1200	     4.583
  36.540	        19	    1200	     4.359
  36.560	        23	    1200	     4.796
  36.580	        23	    1200	     4.796
  36.600	        22	    1200	     4.690
  36.620	        19	    1200	     4.359
  36.640	        27	    1200	     5.196
  36.660	        21	    1200	     4.583
  36.680	        18	    1200	     4.243
  36.700	        23	    1200	     4.796
  36.720	        19	    1200	     4.359
  36.740	        22	    1200	     4.690
  36.760	        29	    1200	     5.385
  36.780	        24	    1200	     4.899
  36.800	        22	    1200	     4.690
  36.820	        19	    1200	     4.359
  36.840	        12	    1200	     3.464
  36.860	        20	    1200	     4.472
  36.880	        14	    1200	     3.742
  36.900	        22	    1200	     4.690
  36.920	        23	    1200	     4.796
  36.940	        26	    1200	     5.099
  36.960	        24	    1200	     4.899
  36.980	        28	    1200	     5.292
  37.000	        25	    1200	     5.000
  37.020	        21	    1200	     4.583
  37.040	        12	    1200	     3.464
  37.060	        19	    1200	     4.359
  37.080	        26	    1200	     5.099
  37.100	        19	    1200	     4.359
  37.120	        29	    1200	     5.385
  37.140	        20	    1200	     4.472
  37.160	        22	    1200	     4.690
  37.180	        26	    1200	     5.099
  37.200	        20	    1200	     4.472
  37.220	        21	    1200	     4.583
  37.240	        28	    1200	     5.292
  37.260	        27	    1200	     5.196
  37.280	        20	    1200	     4.472
  37.300	        23	    1200	     4.796
  37.320	        23	    1200	     4.796
  37.340	        22	    1200	     4.690
  37.360	        18	    1200	     4.243
  37.380	        16	    1200	     4.000
  37.400	        20	    1200	     4.472
  37.420	        24	    1200	     4.899
  37.440	        25	    1200	     5.000
  37.460	        21	    1200	     4.583
  37.480	        20	    1200	     4.472
  37.500	        21	    1200	     4.583
  37.520	        29	    1200	     5.385
  37.540	        21	    1200	     4.583
  37.560	        15	    1200	     3.873
  37.580	        29	    1200	     5.385
  37.600	        24	    1200	     4.899
  37.620	        19	    1200	     4.359
  37.640	        20	    1200	     4.472
  37.660	        25	    1200	     5.000
  37.680	        15	    1200	     3.873
  37.700	        19	    1200	     4.359
  37.720	        21	    1200	     4.583
  37.740	        18	    1200	     4.243
  37.760	        18	    1200	     4.243
  37.780	        12	    1200	     3.464
  37.800	        12	    1200	     3.464
  37.820	        18	    1200	     4.243
  37.840	        20	    1200	     4.472
  37.860	        21	    1200	     4.583
  37.880	        33	    1200	     5.745
  37.900	        20	    1200	     4.472
  37.920	        23	    1200	     4.796
  37.940	        20	    1200	     4.472
  37.960	        17	    1200	     4.123
  37.980	        16	    1200	     4.000
  38.000	        21	    1200	     4.583
  38.020	        22	    1200	     4.690
  38.040	        22	    1200	     4.690
  38.060	        25	    1200	     5.000
  38.080	        22	    1200	     4.690
  38.100	        23	    1200	     4.796
  38.120	        22	    1200	     4.690
  38.140	        24	    1200	     4.899
  38.160	        17	    1200	     4.123
  38.180	        22	    1200	     4.690
  38.200	        20	    1200	     4.472
  38.220	        23	    1200	     4.796
  38.240	        21	    1200	     4.583
  38.260	        16	    1200	     4.000
  38.280	        20	    1200	     4.472
  38.300	        19	    1200	     4.359
  38.320	        28	    1200	     5.292
  38.340	        16	    1200	     4.000
  38.360	        19	    1200	     4.359
  38.380	        31	    1200	     5.568
  38.400	        26	    1200	     5.099
  38.420	        14	    1200	     3.742
  38.440	        18	    1200	     4.243
  38.460	        25	    1200	     5.000
  38.480	        19	    1200	     4.359
  38.500	        29	    1200	     5.385
  38.520	        21	    1200	     4.583
  38.540	        17	    1200	     4.123
  38.560	        23	    1200	     4.796
  38.580	        16	    1200	     4.000
  38.600	        21	    1200	     4.583
  38.620	        22	    1200	     4.690
  38.640	        11	    1200	     3.317
  38.660	        28	    1200	     5.292
  38.680	        33	    1200	     5.745
  38.700	        18	    1200	     4.243
  38.720	        22	    1200	     4.690
  38.740	        21	    1200	     4.583
  38.760	        13	    1200	     3.606
  38.780	        22	    1200	     4.690
  38.800	        19	    1200	     4.359
  38.820	        30	    1200	     5.477
  38.840	        21	    1200	     4.583
  38.860	        29	    1200	     5.385
  38.880	        23	    1200	     4.796
  38.900	        26	    1200	     5.099
  38.920	        23	    1200	     4.796
  38.940	        19	    1200	     4.359
  38.960	        26	    1200	     5.099
  38.980	        22	    1200	     4.690
  39.000	        34	    1200	     5.831
  39.020	        18	    1200	     4.243
  39.040	        29	    1200	     5.385
  39.060	        24	    1200	     4.899
  39.080	        25	    1200	     5.000
  39.100	        27	    1200	     5.196
  39.120	        27	    1200	     5.196
  39.140	        33	    1200	     5.745
  39.160	        33	    1200	     5.745
  39.180	        36	    1200	     6.000
  39.200	        30	    1200	     5.477
  39.220	        37	    1200	     6.083
  39.240	        44	    1200	     6.633
  39.260	        25	    1200	     5.000
  39.280	        42	    1200	     6.481
  39.300	        39	    1200	     6.245
  39.320	        35	    1200	     5.916
  39.340	        40	    1200	     6.325
  39.360	        44	    1200	     6.633
  39.380	        45	    1200	     6.708
  39.400	        50	    1200	     7.071
  39.420	        57	    1200	     7.550
  39.440	        41	    1200	     6.403
  39.460	        59	    1200	     7.681
  39.480	        62	    1200	     7.874
  39.500	        70	    1200	     8.367
  39.520	        82	    1200	     9.055
  39.540	       101	    1200	    10.050
  39.560	       111	    1200	    10.536
  39.580	       118	    1200	    10.863
  39.600	       143	    1200	    11.958
  39.620	       183	    1200	    13.528
  39.640	       215	    1200	    14.663
  39.660	       298	    1200	    17.263
  39.680	       305	    1200	    17.464
  39.700	       327	    1200	    18.083
  39.720	       379	    1200	    19.468
  39.740	       391	    1200	    19.774
  39.760	       404	    1200	    20.100
  39.780	       401	    1200	    20.025
  39.800	       361	    1200	    19.000
  39.820	       304	    1200	    17.436
  39.840	       288	    1200	    16.971
  39.860	       285	    1200	    16.882
  39.880	       230	    1200	    15.166
  39.900	       197	    1200	    14.036
  39.920	       160	    1200	    12.649
  39.940	       127	    1200	    11.269
  39.960	       134	    1200	    11.576
  39.980	       118	    1200	    10.863
  40.000	        88	    1200	     9.381
  40.020	        55	    1200	     7.416
  40.040	        69	    1200	     8.307
  40.060	        55	    1200	     7.416
  40.080	        64	    1200	     8.000
  40.100	        51	    1200	     7.141
  40.120	        47	    1200	     6.856
  40.140	        44	    1200	     6.633
  40.160	        30	    1200	     5.477
  40.180	        34	    1200	     5.831
  40.200	        24	    1200	     4.899
  40.220	        31	    1200	     5.568
  40.240	        36	    1200	     6.000
  40.260	        36	    1200	     6.000
  40.280	        21	    1200	     4.583
  40.300	        35	    1200	     5.916
  40.320	        17	    1200	     4.123
  40.340	        24	    1200	     4.899
  40.360	        27	    1200	     5.196
  40.380	        19	    1200	     4.359
  40.400	        27	    1200	     5.196
  40.420	        34	    1200	     5.831
  40.440	        23	    1200	     4.796
  40.460	        19	    1200	     4.359
  40.480	        26	    1200	     5.099
  40.500	        23	    1200	     4.796
  40.520	        22	    1200	     4.690
  40.540	        29	    1200	     5.385
  40.560	        32	    1200	     5.657
  40.580	        18	    1200	     4.243
  40.600	        18	    1200	     4.243
  40.620	        22	    1200	     4.690
  40.640	        29	    1200	     5.385
  40.660	        29	    1200	     5.385
  40.680	        26	    1200	     5.099
  40.700	        33	    1200	     5.745
  40.720	        24	    1200	     4.899
  40.740	        20	    1200	     4.472
  40.760	        17	    1200	     4.123
  40.780	        29	    1200	     5.385
  40.800	        22	    1200	     4.690
  40.820	        20	    1200	     4.472
  40.840	        24	    1200	     4.899
  40.860	        25	    1200	     5.000
  40.880	        26	    1200	     5.099
  40.900	        19	    1200	     4.359
  40.920	        20	    1200	     4.472
  40.940	        19	    1200	     4.359
  40.960	        25	    1200	     5.000
  40.980	        20	    1200	     4.472
  41.000	        18	    1200	     4.243
  41.020	        26	    1200	     5.099
  41.040	        19	    1200	     4.359
  41.060	        24	    1200	     4.899
  41.080	        34	    1200	     5.831
  41.100	        27	    1200	     5.196
  41.120	        34	    1200	     5.831
  41.140	        25	    1200	     5.000
  41.160	        42	    1200	     6.481
  41.180	        35	    1200	     5.916
  41.200	        26	    1200	     5.099
  41.220	        32	    1200	     5.657
  41.240	        43	    1200	     6.557
  41.260	        32	    1200	     5.657
  41.280	        51	    1200	     7.141
  41.300	        33	    1200	     5.745
  41.320	        31	    1200	     5.568
  41.340	        29	    1200	     5.385
  41.360	        44	    1200	     6.633
  41.380	        33	    1200	     5.745
  41.400	        37	    1200	     6.083
  41.420	        34	    1200	     5.831
  41.440	        23	    1200	     4.796
  41.460	        30	    1200	     5.477
  41.480	        30	    1200	     5.477
  41.500	        25	    1200	     5.000
  41.520	        23	    1200	     4.796
  41.540	        15	    1200	     3.873
  41.560	        21	    1200	     4.583
  41.580	        21	    1200	     4.583
  41.600	        23	    1200	     4.796
  41.620	        20	    1200	     4.472
  41.640	        16	    1200	     4.000
  41.660	        18	    1200	     4.243
  41.680	        18	    1200	     4.243
  41.700	        20	    1200	     4.472
  41.720	        16	    1200	     4.000
  41.740	        18	    1200	     4.243
  41.760	        22	    1200	     4.690
  41.780	        23	    1200	     4.796
  41.800	        15	    1200	     3.873
  41.820	        14	    1200	     3.742
  41.840	        23	    1200	     4.796
  41.860	        14	    1200	     3.742
  41.880	        18	    1200	     4.243
  41.900	        18	    1200	     4.243
  41.920	        18	    1200	     4.243
  41.940	        15	    1200	     3.873
  41.960	        18	    1200	     4.243
  41.980	        16	    1200	     4.000
  42.000	        11	    1200	     3.317
  42.020	        16	    1200	     4.000
  42.040	        15	    1200	     3.873
  42.060	        18	    1200	     4.243
  42.080	        17	    1200	     4.123
  42.100	        20	    1200	     4.472
  42.120	        17	    1200	     4.123
  42.140	        23	    1200	     4.796
  42.160	        14	    1200	     3.742
  42.180	        24	    1200	     4.899
  42.200	        16	    1200	     4.000
  42.220	        15	    1200	     3.873
  42.240	        15	    1200	     3.873
  42.260	        22	    1200	     4.690
  42.280	        17	    1200	     4.123
  42.300	        24	    1200	     4.899
  42.320	        26	    1200	     5.099
  42.340	        12	    1200	     3.464
  42.360	        17	    1200	     4.123
  42.380	        16	    1200	     4.000
  42.400	        18	    1200	     4.243
  42.420	        19	    1200	     4.359
  42.440	        21	    1200	     4.583
  42.460	        19	    1200	     4.359
  42.480	        15	    1200	     3.873
  42.500	        23	    1200	     4.796
  42.520	        17	    1200	     4.123
  42.540	        24	    1200	     4.899
  42.560	        21	    1200	     4.583
  42.580	        10	    1200	     3.162
  42.600	        15	    1200	     3.873
  42.620	        18	    1200	     4.243
  42.640	        15	    1200	     3.873
  42.660	        11	    1200	     3.317
  42.680	        20	    1200	     4.472
  42.700	        26	    1200	     5.099
  42.720	        19	    1200	     4.359
  42.740	        13	    1200	     3.606
  42.760	        11	    1200	     3.317
  42.780	        17	    1200	     4.123
  42.800	        20	    1200	     4.472
  42.820	        18	    1200	     4.243
  42.840	        22	    1200	     4.690
  42.860	        21	    1200	     4.583
  42.880	        19	    1200	     4.359
  42.900	        16	    1200	     4.000
  42.920	        11	    1200	     3.317
  42.940	        15	    1200	     3.873
  42.960	        13	    1200	     3.606
  42.980	        16	    1200	     4.000
  43.000	        19	    1200	     4.359
  43.020	        13	    1200	     3.606
  43.040	        12	    1200	     3.464
  43.060	        18	    1200	     4.243
  43.080	        18	    1200	     4.243
  43.100	        15	    1200	     3.873
  43.120	        18	    1200	     4.243
  43.140	        18	    1200	     4.243
  43.160	        13	    1200	     3.606
  43.180	        10	    1200	     3.162
  43.200	        19	    1200	     4.359
  43.220	        28	    1200	     5.292
  43.240	        22	    1200	     4.690
  43.260	        16	    1200	     4.000
  43.280	        10	    1200	     3.162
  43.300	        13	    1200	     3.606
  43.320	        14	    1200	     3.742
  43.340	        19	    1200	     4.359
  43.360	        12	    1200	     3.464
  43.380	         9	    1200	     3.000
  43.400	        15	    1200	     3.873
  43.420	        21	    1200	     4.583
  43.440	        15	    1200	     3.873
  43.460	        14	    1200	     3.742
  43.480	        17	    1200	     4.123
  43.500	        14	    1200	     3.742
  43.520	        16	    1200	     4.000
  43.540	        21	    1200	     4.583
  43.560	        17	    1200	     4.123
  43.580	        22	    1200	     4.690
  43.600	        20	    1200	     4.472
  43.620	        12	    1200	     3.464
  43.640	        17	    1200	     4.123
  43.660	        18	    1200	     4.243
  43.680	        16	    1200	     4.000
  43.700	        22	    1200	     4.690
  43.720	        12	    1200	     3.464
  43.740	        17	    1200	     4.123
  43.760	        26	    1200	     5.099
  43.780	        19	    1200	     4.359
  43.800	        15	    1200	     3.873
  43.820	        19	    1200	     4.359
  43.840	        17	    1200	     4.123
  43.860	        27	    1200	     5.196
  43.880	        15	    1200	     3.873
  43.900	        22	    1200	     4.690
  43.920	        17	    1200	     4.123
  43.940	        15	    1200	     3.873
  43.960	        15	    1200	     3.873
  43.980	        26	    1200	     5.099
  44.000	        18	    1200	     4.243
  44.020	        14	    1200	     3.742
  44.040	        19	    1200	     4.359
  44.060	        20	    1200	     4.472
  44.080	        14	    1200	     3.742
  44.100	        15	    1200	     3.873
  44.120	        23	    1200	     4.796
  44.140	        21	    1200	     4.583
  44.160	        17	    1200	     4.123
  44.180	        24	    1200	     4.899
  44.200	        12	    1200	     3.464
  44.220	        21	    1200	     4.583
  44.240	        28	    1200	     5.292
  44.260	        25	    1200	     5.000
  44.280	        15	    1200	     3.873
  44.300	        15	    1200	     3.873
  44.320	        14	    1200	     3.742
  44.340	        17	    1200	     4.123
  44.360	        22	    1200	     4.690
  44.380	        21	    1200	     4.583
  44.400	        26	    1200	     5.099
  44.420	        15	    1200	     3.873
  44.440	        23	    1200	     4.796
  44.460	        25	    1200	     5.000
  44.480	        18	    1200	     4.243
  44.500	        20	    1200	     4.472
  44.520	        24	    1200	     4.899
  44.540	        25	    1200	     5.000
  44.560	        27	    1200	     5.196
  44.580	        22	    1200	     4.690
  44.600	        23	    1200	     4.796
  44.620	        25	    1200	     5.000
  44.640	        22	    1200	     4.690
  44.660	        17	    1200	     4.123
  44.680	        27	    1200	     5.196
  44.700	        23	    1200	     4.796
  44.720	        17	    1200	     4.123
  44.740	        17	    1200	     4.123
  44.760	        22	    1200	     4.690
  44.780	        14	    1200	     3.742
  44.800	        22	    1200	     4.690
  44.820	        18	    1200	     4.243
  44.840	        20	    1200	     4.472
  44.860	        11	    1200	     3.317
  44.880	        25	    1200	     5.000
  44.900	        18	    1200	     4.243
  44.920	        24	    1200	     4.899
  44.940	        29	    1200	     5.385
  44.960	        19	    1200	     4.359
  44.980	        18	    1200	     4.243
  45.000	        17	    1200	     4.123
  45.020	        16	    1200	     4.000
  45.040	        20	    1200	     4.472
  45.060	        18	    1200	     4.243
  45.080	        20	    1200	     4.472
  45.100	        27	    1200	     5.196
  45.120	        13	    1200	     3.606
  45.140	        22	    1200	     4.690
  45.160	        24	    1200	     4.899
  45.180	        27	    1200	     5.196
  45.200	        32	    1200	     5.657
  45.220	        23	    1200	     4.796
  45.240	        20	    1200	     4.472
  45.260	        26	    1200	     5.099
  45.280	        23	    1200	     4.796
  45.300	        25	    1200	     5.000
  45.320	        22	    1200	     4.690
  45.340	        24	    1200	     4.899
  45.360	        29	    1200	     5.385
  45.380	        28	    1200	     5.292
  45.400	        26	    1200	     5.099
  45.420	        28	    1200	     5.292
  45.440	        21	    1200	     4.583
  45.460	        20	    1200	     4.472
  45.480	        26	    1200	     5.099
  45.500	        34	    1200	     5.831
  45.520	        33	    1200	     5.745
  45.540	        27	    1200	     5.196
  45.560	        36	    1200	     6.000
  45.580	        32	    1200	     5.657
  45.600	        34	    1200	     5.831
  45.620	        41	    1200	     6.403
  45.640	        42	    1200	     6.481
  45.660	        49	    1200	     7.000
  45.680	        49	    1200	     7.000
  45.700	        63	    1200	     7.937
  45.720	        56	    1200	     7.483
  45.740	        69	    1200	     8.307
  45.760	        71	    1200	     8.426
  45.780	        71	    1200	     8.426
  45.800	        85	    1200	     9.220
  45.820	        86	    1200	     9.274
  45.840	        88	    1200	     9.381
  45.860	       103	    1200	    10.149
  45.880	        97	    1200	     9.849
  45.900	       107	    1200	    10.344
  45.920	       122	    1200	    11.045
  45.940	       144	    1200	    12.000
  45.960	       162	    1200	    12.728
  45.980	       170	    1200	    13.038
  46.000	       192	    1200	    13.856
  46.020	       218	    1200	    14.765
  46.040	       246	    1200	    15.684
  46.060	       269	    1200	    16.401
  46.080	       387	    1200	    19.672
  46.100	       409	    1200	    20.224
  46.120	       468	    1200	    21.633
  46.140	       520	    1200	    22.804
  46.160	       615	    1200	    24.799
  46.180	       708	    1200	    26.608
  46.200	       748	    1200	    27.350
  46.220	       776	    1200	    27.857
  46.240	       819	    1200	    28.618
  46.260	       829	    1200	    28.792
  46.280	       832	    1200	    28.844
  46.300	       844	    1200	    29.052
  46.320	       788	    1200	    28.071
  46.340	       707	    1200	    26.589
  46.360	       713	    1200	    26.702
  46.380	       622	    1200	    24.940
  46.400	       555	    1200	    23.558
  46.420	       495	    1200	    22.249
  46.440	       445	    1200	    21.095
  46.460	       363	    1200	    19.053
  46.480	       323	    1200	    17.972
  46.500	       257	    1200	    16.031
  46.520	       212	    1200	    14.560
  46.540	       182	    1200	    13.491
  46.560	       176	    1200	    13.266
  46.580	       142	    1200	    11.916
  46.600	       118	    1200	    10.863
  46.620	       109	    1200	    10.440
  46.640	       106	    1200	    10.296
  46.660	        89	    1200	     9.434
  46.680	        75	    1200	     8.660
  46.700	        77	    1200	     8.775
  46.720	        56	    1200	     7.483
  46.740	        55	    1200	     7.416
  46.760	        43	    1200	     6.557
  46.780	        31	    1200	     5.568
  46.800	        28	    1200	     5.292
  46.820	        47	    1200	     6.856
  46.840	        33	    1200	     5.745
  46.860	        36	    1200	     6.000
  46.880	        35	    1200	     5.916
  46.900	        32	    1200	     5.657
  46.920	        28	    1200	     5.292
  46.940	        23	    1200	     4.796
  46.960	        36	    1200	     6.000
  46.980	        27	    1200	     5.196
  47.000	        31	    1200	     5.568
  47.020	        40	    1200	     6.325
  47.040	        32	    1200	     5.657
  47.060	        24	    1200	     4.899
  47.080	        34	    1200	     5.831
  47.100	        30	    1200	     5.477
  47.120	        35	    1200	     5.916
  47.140	        25	    1200	     5.000
  47.160	        22	    1200	     4.690
  47.180	        21	    1200	     4.583
  47.200	        32	    1200	     5.657
  47.220	        27	    1200	     5.196
  47.240	        34	    1200	     5.831
  47.260	        28	    1200	     5.292
  47.280	        39	    1200	     6.245
  47.300	        26	    1200	     5.099
  47.320	        25	    1200	     5.000
  47.340	        23	    1200	     4.796
  47.360	        21	    1200	     4.583
  47.380	        33	    1200	     5.745
  47.400	        30	    1200	     5.477
  47.420	        26	    1200	     5.099
  47.440	        32	    1200	     5.657
  47.460	        23	    1200	     4.796
  47.480	        43	    1200	     6.557
  47.500	        26	    1200	     5.099
  47.520	        34	    1200	     5.831
  47.540	        24	    1200	     4.899
  47.560	        21	    1200	     4.583
  47.580	        33	    1200	     5.745
  47.600	        26	    1200	     5.099
  47.620	        19	    1200	     4.359
  47.640	        21	    1200	     4.583
  47.660	        30	    1200	     5.477
  47.680	        21	    1200	     4.583
  47.700	        20	    1200	     4.472
  47.720	        20	    1200	     4.472
  47.740	        24	    1200	     4.899
  47.760	        35	    1200	     5.916
  47.780	        26	    1200	     5.099
  47.800	        16	    1200	     4.000
  47.820	        21	    1200	     4.583
  47.840	        23	    1200	     4.796
  47.860	        14	    1200	     3.742
  47.880	        15	    1200	     3.873
  47.900	        20	    1200	     4.472
  47.920	        23	    1200	     4.796
  47.940	        19	    1200	     4.359
  47.960	        21	    1200	     4.583
  47.980	        16	    1200	     4.000
  48.000	        25	    1200	     5.000
  48.020	        21	    1200	     4.583
  48.040	        14	    1200	     3.742
  48.060	        16	    1200	     4.000
  48.080	        23	    1200	     4.796
  48.100	        14	    1200	     3.742
  48.120	        15	    1200	     3.873
  48.140	        29	    1200	     5.385
  48.160	        21	    1200	     4.583
  48.180	        16	    1200	     4.000
  48.200	        16	    1200	     4.000
  48.220	        21	    1200	     4.583
  48.240	        14	    1200	     3.742
  48.260	        20	    1200	     4.472
  48.280	        23	    1200	     4.796
  48.300	        14	    1200	     3.742
  48.320	        14	    1200	     3.742
  48.340	        17	    1200	     4.123
  48.360	        19	    1200	     4.359
  48.380	        15	    1200	     3.873
  48.400	        25	    1200	     5.000
  48.420	        13	    1200	     3.606
  48.440	        27	    1200	     5.196
  48.460	        11	    1200	     3.317
  48.480	        16	    1200	     4.000
  48.500	        18	    1200	     4.243
  48.520	        16	    1200	     4.000
  48.540	        13	    1200	     3.606
  48.560	        14	    1200	     3.742
  48.580	        17	    1200	     4.123
  48.600	        19	    1200	     4.359
  48.620	        18	    1200	     4.243
  48.640	        22	    1200	     4.690
  48.660	        16	    1200	     4.000
  48.680	        15	    1200	     3.873
  48.700	        14	    1200	     3.742
  48.720	         9	    1200	     3.000
  48.740	        16	    1200	     4.000
  48.760	        14	    1200	     3.742
  48.780	        17	    1200	     4.123
  48.800	        19	    1200	     4.359
  48.820	        16	    1200	     4.000
  48.840	        13	    1200	     3.606
  48.860	        17	    1200	     4.123
  48.880	        16	    1200	     4.000
  48.900	        14	    1200	     3.742
  48.920	        16	    1200	     4.000
  48.940	        13	    1200	     3.606
  48.960	        24	    1200	     4.899
  48.980	        12	    1200	     3.464
  49.000	        11	    1200	     3.317
  49.020	        22	    1200	     4.690
  49.040	        11	    1200	     3.317
  49.060	        19	    1200	     4.359
  49.080	        11	    1200	     3.317
  49.100	        25	    1200	     5.000
  49.120	        16	    1200	     4.000
  49.140	        10	    1200	     3.162
  49.160	        21	    1200	     4.583
  49.180	        19	    1200	     4.359
  49.200	        17	    1200	     4.123
  49.220	        13	    1200	     3.606
  49.240	        11	    1200	     3.317
  49.260	        19	    1200	     4.359
  49.280	        17	    1200	     4.123
  49.300	        11	    1200	     3.317
  49.320	        11	    1200	     3.317
  49.340	        12	    1200	     3.464
  49.360	        12	    1200	     3.464
  49.380	        23	    1200	     4.796
  49.400	        17	    1200	     4.123
  49.420	         6	    1200	     2.449
  49.440	        12	    1200	     3.464
  49.460	        17	    1200	     4.123
  49.480	         9	    1200	     3.000
  49.500	        21	    1200	     4.583
  49.520	        13	    1200	     3.606
  49.540	        16	    1200	     4.000
  49.560	        19	    1200	     4.359
  49.580	        12	    1200	     3.464
  49.600	         9	    1200	     3.000
  49.620	        12	    1200	     3.464
  49.640	        11	    1200	     3.317
  49.660	        15	    1200	     3.873
  49.680	        13	    1200	     3.606
  49.700	        17	    1200	     4.123
  49.720	        18	    1200	     4.243
  49.740	        19	    1200	     4.359
  49.760	        14	    1200	     3.742
  49.780	        17	    1200	     4.123
  49.800	        12	    1200	     3.464
  49.820	        16	    1200	     4.000
  49.840	        10	    1200	     3.162
  49.860	        16	    1200	     4.000
  49.880	        11	    1200	     3.317
  49.900	        14	    1200	     3.742
  49.920	        18	    1200	     4.243
  49.940	        12	    1200	     3.464
  49.960	        12	    1200	     3.464
  49.980	        14	    1200	     3.742
  50.000	        17	    1200	     4.123
  50.020	        13	    1200	     3.606
  50.040	        11	    1200	     3.317
  50.060	        15	    1200	     3.873
  50.080	        11	    1200	     3.317
  50.100	        14	    1200	     3.742
  50.120	        13	    1200	     3.606
  50.140	        20	    1200	     4.472
  50.160	        14	    1200	     3.742
  50.180	        28	    1200	     5.292
  50.200	        11	    1200	     3.317
  50.220	        14	    1200	     3.742
  50.240	        23	    1200	     4.796
  50.260	        12	    1200	     3.464
  50.280	        12	    1200	     3.464
  50.300	        12	    1200	     3.464
  50.320	         9	    1200	     3.000
  50.340	        11	    1200	     3.317
  50.360	        13	    1200	     3.606
  50.380	         9	    1200	     3.000
  50.400	        14	    1200	     3.742
  50.420	        10	    1200	     3.162
  50.440	         7	    1200	     2.646
  50.460	        16	    1200	     4.000
  50.480	         9	    1200	     3.000
  50.500	        17	    1200	     4.123
  50.520	        15	    1200	     3.873
  50.540	        13	    1200	     3.606
  50.560	        10	    1200	     3.162
  50.580	        19	    1200	     4.359
  50.600	        11	    1200	     3.317
  50.620	        12	    1200	     3.464
  50.640	        10	    1200	     3.162
  50.660	        17	    1200	     4.123
  50.680	        17	    1200	     4.123
  50.700	        16	    1200	     4.000
  50.720	        13	    1200	     3.606
  50.740	        20	    1200	     4.472
  50.760	        14	    1200	     3.742
  50.780	        14	    1200	     3.742
  50.800	        14	    1200	     3.742
  50.820	         8	    1200	     2.828
  50.840	        12	    1200	     3.464
  50.860	        12	    1200	     3.464
  50.880	        12	    1200	     3.464
  50.900	        13	    1200	     3.606
  50.920	        12	    1200	     3.464
  50.940	        16	    1200	     4.000
  50.960	        13	    1200	     3.606
  50.980	        15	    1200	     3.873
  51.000	        11	    1200	     3.317
  51.020	        13	    1200	     3.606
  51.040	        13	    1200	     3.606
  51.060	        18	    1200	     4.243
  51.080	        17	    1200	     4.123
  51.100	        19	    1200	     4.359
  51.120	        23	    1200	     4.796
  51.140	         8	    1200	     2.828
  51.160	         9	    1200	     3.000
  51.180	        16	    1200	     4.000
  51.200	        12	    1200	     3.464
  51.220	        16	    1200	     4.000
  51.240	        10	    1200	     3.162
  51.260	        18	    1200	     4.243
  51.280	        16	    1200	     4.000
  51.300	        14	    1200	     3.742
  51.320	        11	    1200	     3.317
  51.340	        22	    1200	     4.690
  51.360	        17	    1200	     4.123
  51.380	        16	    1200	     4.000
  51.400	        10	    1200	     3.162
  51.420	        17	    1200	     4.123
  51.440	        19	    1200	     4.359
  51.460	        21	    1200	     4.583
  51.480	        19	    1200	     4.359
  51.500	        20	    1200	     4.472
  51.520	        14	    1200	     3.742
  51.540	        15	    1200	     3.873
  51.560	         8	    1200	     2.828
  51.580	        25	    1200	     5.000
  51.600	        21	    1200	     4.583
  51.620	        24	    1200	     4.899
  51.640	        20	    1200	     4.472
  51.660	        20	    1200	     4.472
  51.680	        19	    1200	     4.359
  51.700	        24	    1200	     4.899
  51.720	        26	    1200	     5.099
  51.740	        18	    1200	     4.243
  51.760	        22	    1200	     4.690
  51.780	        20	    1200	     4.472
  51.800	        26	    1200	     5.099
  51.820	        20	    1200	     4.472
  51.840	        22	    1200	     4.690
  51.860	        21	    1200	     4.583
  51.880	        22	    1200	     4.690
  51.900	        23	    1200	     4.796
  51.920	        26	    1200	     5.099
  51.940	        34	    1200	     5.831
  51.960	        29	    1200	     5.385
  51.980	        30	    1200	     5.477
  52.000	        42	    1200	     6.481
  52.020	        44	    1200	     6.633
  52.040	        46	    1200	     6.782
  52.060	        40	    1200	     6.325
  52.080	        46	    1200	     6.782
  52.100	        50	    1200	     7.071
  52.120	        49	    1200	     7.000
  52.140	        52	    1200	     7.211
  52.160	        50	    1200	     7.071
  52.180	        48	    1200	     6.928
  52.200	        62	    1200	     7.874
  52.220	        64	    1200	     8.000
  52.240	        43	    1200	     6.557
  52.260	        37	    1200	     6.083
  52.280	        40	    1200	     6.325
  52.300	        43	    1200	     6.557
  52.320	        40	    1200	     6.325
  52.340	        27	    1200	     5.196
  52.360	        15	    1200	     3.873
  52.380	        19	    1200	     4.359
  52.400	        24	    1200	     4.899
  52.420	        21	    1200	     4.583
  52.440	        21	    1200	     4.583
  52.460	        19	    1200	     4.359
  52.480	        18	    1200	     4.243
  52.500	        15	    1200	     3.873
  52.520	        17	    1200	     4.123
  52.540	        22	    1200	     4.690
  52.560	        19	    1200	     4.359
  52.580	        11	    1200	     3.317
  52.600	        18	    1200	     4.243
  52.620	        21	    1200	     4.583
  52.640	        14	    1200	     3.742
  52.660	        11	    1200	     3.317
  52.680	        15	    1200	     3.873
  52.700	        17	    1200	     4.123
  52.720	        17	    1200	     4.123
  52.740	        19	    1200	     4.359
  52.760	        12	    1200	     3.464
  52.780	        12	    1200	     3.464
  52.800	        12	    1200	     3.464
  52.820	        19	    1200	     4.359
  52.840	         8	    1200	     2.828
  52.860	        13	    1200	     3.606
  52.880	        15	    1200	     3.873
  52.900	        15	    1200	     3.873
  52.920	        17	    1200	     4.123
  52.940	        24	    1200	     4.899
  52.960	         8	    1200	     2.828
  52.980	        16	    1200	     4.000
  53.000	        14	    1200	     3.742
  53.020	        12	    1200	     3.464
  53.040	         6	    1200	     2.449
  53.060	        17	    1200	     4.123
  53.080	        12	    1200	     3.464
  53.100	        15	    1200	     3.873
  53.120	        13	    1200	     3.606
  53.140	        17	    1200	     4.123
  53.160	        21	    1200	     4.583
  53.180	        14	    1200	     3.742
  53.200	        22	    1200	     4.690
  53.220	        13	    1200	     3.606
  53.240	        13	    1200	     3.606
  53.260	        12	    1200	     3.464
  53.280	        11	    1200	     3.317
  53.300	         8	    1200	     2.828
  53.320	        12	    1200	     3.464
  53.340	        11	    1200	     3.317
  53.360	        18	    1200	     4.243
  53.380	        11	    1200	     3.317
  53.400	        19	    1200	     4.359
  53.420	        20	    1200	     4.472
  53.440	        19	    1200	     4.359
  53.460	        19	    1200	     4.359
  53.480	        23	    1200	     4.796
  53.500	        13	    1200	     3.606
  53.520	        19	    1200	     4.359
  53.540	        16	    1200	     4.000
  53.560	        20	    1200	     4.472
  53.580	        15	    1200	     3.873
  53.600	        22	    1200	     4.690
  53.620	        11	    1200	     3.317
  53.640	        12	    1200	     3.464
  53.660	        10	    1200	     3.162
  53.680	         9	    1200	     3.000
  53.700	        18	    1200	     4.243
  53.720	         9	    1200	     3.000
  53.740	         8	    1200	     2.828
  53.760	        17	    1200	     4.123
  53.780	        12	    1200	     3.464
  53.800	        10	    1200	     3.162
  53.820	        12	    1200	     3.464
  53.840	        17	    1200	     4.123
  53.860	        13	    1200	     3.606
  53.880	        16	    1200	     4.000
  53.900	        10	    1200	     3.162
  53.920	        15	    1200	     3.873
  53.940	        13	    1200	     3.606
  53.960	        11	    1200	     3.317
  53.980	        11	    1200	     3.317
  54.000	        12	    1200	     3.464
  54.020	        21	    1200	     4.583
  54.040	        11	    1200	     3.317
  54.060	        13	    1200	     3.606
  54.080	        12	    1200	     3.464
  54.100	        11	    1200	     3.317
  54.120	        12	    1200	     3.464
  54.140	        21	    1200	     4.583
  54.160	        17	    1200	     4.123
  54.180	         9	    1200	     3.000
  54.200	        15	    1200	     3.873
  54.220	        15	    1200	     3.873
  54.240	        12	    1200	     3.464
  54.260	        10	    1200	     3.162
  54.280	        17	    1200	     4.123
  54.300	        13	    1200	     3.606
  54.320	        14	    1200	     3.742
  54.340	        11	    1200	     3.317
  54.360	        15	    1200	     3.873
  54.380	        17	    1200	     4.123
  54.400	        12	    1200	     3.464
  54.420	        15	    1200	     3.873
  54.440	        12	    1200	     3.464
  54.460	        13	    1200	     3.606
  54.480	        10	    1200	     3.162
  54.500	        13	    1200	     3.606
  54.520	        16	    1200	     4.000
  54.540	        20	    1200	     4.472
  54.560	        18	    1200	     4.243
  54.580	        14	    1200	     3.742
  54.600	        15	    1200	     3.873
  54.620	        16	    1200	     4.000
  54.640	        17	    1200	     4.123
  54.660	        17	    1200	     4.123
  54.680	        13	    1200	     3.606
  54.700	         6	    1200	     2.449
  54.720	        14	    1200	     3.742
  54.740	        10	    1200	     3.162
  54.760	        22	    1200	     4.690
  54.780	        13	    1200	     3.606
  54.800	        15	    1200	     3.873
  54.820	        10	    1200	     3.162
  54.840	        14	    1200	     3.742
  54.860	        19	    1200	     4.359
  54.880	        14	    1200	     3.742
  54.900	        17	    1200	     4.123
  54.920	        15	    1200	     3.873
  54.940	        16	    1200	     4.000
  54.960	        15	    1200	     3.873
  54.980	        15	    1200	     3.873
  55.000	        15	    1200	     3.873
  55.020	        15	    1200	     3.873
  55.040	         8	    1200	     2.828
  55.060	        21	    1200	     4.583
  55.080	        13	    1200	     3.606
  55.100	        12	    1200	     3.464
  55.120	        14	    1200	     3.742
  55.140	        15	    1200	     3.873
  55.160	         7	    1200	     2.646
  55.180	        17	    1200	     4.123
  55.200	        11	    1200	     3.317
  55.220	        16	    1200	     4.000
  55.240	        17	    1200	     4.123
  55.260	        18	    1200	     4.243
  55.280	         8	    1200	     2.828
  55.300	        18	    1200	     4.243
  55.320	        12	    1200	     3.464
  55.340	        11	    1200	     3.317
  55.360	        15	    1200	     3.873
  55.380	        13	    1200	     3.606
  55.400	        19	    1200	     4.359
  55.420	        11	    1200	     3.317
  55.440	        20	    1200	     4.472
  55.460	        18	    1200	     4.243
  55.480	        15	    1200	     3.873
  55.500	        10	    1200	     3.162
  55.520	        18	    1200	     4.243
  55.540	        24	    1200	     4.899
  55.560	        16	    1200	     4.000
  55.580	        21	    1200	     4.583
  55.600	        17	    1200	     4.123
  55.620	        19	    1200	     4.359
  55.640	        17	    1200	     4.123
  55.660	        13	    1200	     3.606
  55.680	        18	    1200	     4.243
  55.700	        19	    1200	     4.359
  55.720	        22	    1200	     4.690
  55.740	        24	    1200	     4.899
  55.760	        23	    1200	     4.796
  55.780	        17	    1200	     4.123
  55.800	        19	    1200	     4.359
  55.820	        12	    1200	     3.464
  55.840	        10	    1200	     3.162
  55.860	        15	    1200	     3.873
  55.880	        20	    1200	     4.472
  55.900	        19	    1200	     4.359
  55.920	        26	    1200	     5.099
  55.940	        14	    1200	     3.742
  55.960	        19	    1200	     4.359
  55.980	        21	    1200	     4.583
  56.000	        17	    1200	     4.123
  56.020	        20	    1200	     4.472
  56.040	        10	    1200	     3.162
  56.060	        17	    1200	     4.123
  56.080	        11	    1200	     3.317
  56.100	        22	    1200	     4.690
  56.120	        20	    1200	     4.472
  56.140	        17	    1200	     4.123
  56.160	        22	    1200	     4.690
  56.180	        26	    1200	     5.099
  56.200	        17	    1200	     4.123
  56.220	        16	    1200	     4.000
  56.240	        24	    1200	     4.899
  56.260	        24	    1200	     4.899
  56.280	        13	    1200	     3.606
  56.300	        13	    1200	     3.606
  56.320	        27	    1200	     5.196
  56.340	        19	    1200	     4.359
  56.360	        24	    1200	     4.899
  56.380	        24	    1200	     4.899
  56.400	        21	    1200	     4.583
  56.420	        26	    1200	     5.099
  56.440	        14	    1200	     3.742
  56.460	        16	    1200	     4.000
  56.480	        23	    1200	     4.796
  56.500	        30	    1200	     5.477
  56.520	        29	    1200	     5.385
  56.540	        28	    1200	     5.292
  56.560	        36	    1200	     6.000
  56.580	        41	    1200	     6.403
  56.600	        41	    1200	     6.403
  56.620	        44	    1200	     6.633
  56.640	        29	    1200	     5.385
  56.660	        35	    1200	     5.916
  56.680	        31	    1200	     5.568
  56.700	        49	    1200	     7.000
  56.720	        39	    1200	     6.245
  56.740	        38	    1200	     6.164
  56.760	        48	    1200	     6.928
  56.780	        43	    1200	     6.557
  56.800	        34	    1200	     5.831
  56.820	        48	    1200	     6.928
  56.840	        35	    1200	     5.916
  56.860	        47	    1200	     6.856
  56.880	        48	    1200	     6.928
  56.900	        48	    1200	     6.928
  56.920	        44	    1200	     6.633
  56.940	        44	    1200	     6.633
  56.960	        46	    1200	     6.782
  56.980	        53	    1200	     7.280
  57.000	        58	    1200	     7.616
  57.020	        48	    1200	     6.928
  57.040	        59	    1200	     7.681
  57.060	        62	    1200	     7.874
  57.080	        85	    1200	     9.220
  57.100	        64	    1200	     8.000
  57.120	        83	    1200	     9.110
  57.140	        78	    1200	     8.832
  57.160	        91	    1200	     9.539
  57.180	        82	    1200	     9.055
  57.200	       106	    1200	    10.296
  57.220	       110	    1200	    10.488
  57.240	       143	    1200	    11.958
  57.260	       146	    1200	    12.083
  57.280	       157	    1200	    12.530
  57.300	       226	    1200	    15.033
  57.320	       203	    1200	    14.248
  57.340	       265	    1200	    16.279
  57.360	       295	    1200	    17.176
  57.380	       372	    1200	    19.287
  57.400	       439	    1200	    20.952
  57.420	       478	    1200	    21.863
  57.440	       569	    1200	    23.854
  57.460	       650	    1200	    25.495
  57.480	       714	    1200	    26.721
  57.500	       716	    1200	    26.758
  57.520	       724	    1200	    26.907
  57.540	       751	    1200	    27.404
  57.560	       860	    1200	    29.326
  57.580	       826	    1200	    28.740
  57.600	       774	    1200	    27.821
  57.620	       758	    1200	    27.532
  57.640	       758	    1200	    27.532
  57.660	       701	    1200	    26.476
  57.680	       696	    1200	    26.382
  57.700	       654	    1200	    25.573
  57.720	       609	    1200	    24.678
  57.740	       539	    1200	    23.216
  57.760	       509	    1200	    22.561
  57.780	       435	    1200	    20.857
  57.800	       390	    1200	    19.748
  57.820	       316	    1200	    17.776
  57.840	       333	    1200	    18.248
  57.860	       252	    1200	    15.875
  57.880	       197	    1200	    14.036
  57.900	       159	    1200	    12.610
  57.920	       153	    1200	    12.369
  57.940	       123	    1200	    11.091
  57.960	       126	    1200	    11.225
  57.980	        97	    1200	     9.849
  58.000	        92	    1200	     9.592
  58.020	       101	    1200	    10.050
  58.040	        66	    1200	     8.124
  58.060	        62	    1200	     7.874
  58.080	        65	    1200	     8.062
  58.100	        56	    1200	     7.483
  58.120	        55	    1200	     7.416
  58.140	        51	    1200	     7.141
  58.160	        46	    1200	     6.782
  58.180	        41	    1200	     6.403
  58.200	        38	    1200	     6.164
  58.220	        31	    1200	     5.568
  58.240	        41	    1200	     6.403
  58.260	        39	    1200	     6.245
  58.280	        36	    1200	     6.000
  58.300	        30	    1200	     5.477
  58.320	        36	    1200	     6.000
  58.340	        36	    1200	     6.000
  58.360	        30	    1200	     5.477
  58.380	        29	    1200	     5.385
  58.400	        27	    1200	     5.196
  58.420	        26	    1200	     5.099
  58.440	        36	    1200	     6.000
  58.460	        33	    1200	     5.745
  58.480	        39	    1200	     6.245
  58.500	        24	    1200	     4.899
  58.520	        32	    1200	     5.657
  58.540	        25	    1200	     5.000
  58.560	        27	    1200	     5.196
  58.580	        30	    1200	     5.477
  58.600	        17	    1200	     4.123
  58.620	        26	    1200	     5.099
  58.640	        27	    1200	     5.196
  58.660	        22	    1200	     4.690
  58.680	        22	    1200	     4.690
  58.700	        21	    1200	     4.583
  58.720	        30	    1200	     5.477
  58.740	        28	    1200	     5.292
  58.760	        30	    1200	     5.477
  58.780	        18	    1200	     4.243
  58.800	        20	    1200	     4.472
  58.820	        20	    1200	     4.472
  58.840	        17	    1200	     4.123
  58.860	        28	    1200	     5.292
  58.880	        20	    1200	     4.472
  58.900	        21	    1200	     4.583
  58.920	        19	    1200	     4.359
  58.940	        26	    1200	     5.099
  58.960	        24	    1200	     4.899
  58.980	        21	    1200	     4.583
  59.000	        27	    1200	     5.196
  59.020	        15	    1200	     3.873
  59.040	        19	    1200	     4.359
  59.060	        17	    1200	     4.123
  59.080	        23	    1200	     4.796
  59.100	        23	    1200	     4.796
  59.120	        20	    1200	     4.472
  59.140	        10	    1200	     3.162
  59.160	        26	    1200	     5.099
  59.180	        28	    1200	     5.292
  59.200	        24	    1200	     4.899
  59.220	        22	    1200	     4.690
  59.240	        20	    1200	     4.472
  59.260	        20	    1200	     4.472
  59.280	        20	    1200	     4.472
  59.300	        11	    1200	     3.317
  59.320	        13	    1200	     3.606
  59.340	        23	    1200	     4.796
  59.360	        22	    1200	     4.690
  59.380	        24	    1200	     4.899
  59.400	        21	    1200	     4.583
  59.420	        23	    1200	     4.796
  59.440	        25	    1200	     5.000
  59.460	        19	    1200	     4.359
  59.480	        12	    1200	     3.464
  59.500	        18	    1200	     4.243
  59.520	        12	    1200	     3.464
  59.540	        20	    1200	     4.472
  59.560	        19	    1200	     4.359
  59.580	        17	    1200	     4.123
  59.600	        15	    1200	     3.873
  59.620	        20	    1200	     4.472
  59.640	        21	    1200	     4.583
  59.660	        15	    1200	     3.873
  59.680	        19	    1200	     4.359
  59.700	        16	    1200	     4.000
  59.720	        14	    1200	     3.742
  59.740	        15	    1200	     3.873
  59.760	        19	    1200	     4.359
  59.780	        21	    1200	     4.583
  59.800	        16	    1200	     4.000
  59.820	        18	    1200	     4.243
  59.840	        16	    1200	     4.000
  59.860	        14	    1200	     3.742
  59.880	        15	    1200	     3.873
  59.900	        15	    1200	     3.873
  59.920	        16	    1200	     4.000
  59.940	        18	    1200	     4.243
  59.960	        16	    1200	     4.000
  59.980	        18	    1200	     4.243
  60.000	        20	    1200	     4.472
  60.020	        16	    1200	     4.000
  60.040	        20	    1200	     4.472
  60.060	        24	    1200	     4.899
  60.080	        20	    1200	     4.472
  60.100	        21	    1200	     4.583
  60.120	         9	    1200	     3.000
  60.140	        19	    1200	     4.359
  60.160	        21	    1200	     4.583
  60.180	        27	    1200	     5.196
  60.200	        12	    1200	     3.464
  60.220	        17	    1200	     4.123
  60.240	        19	    1200	     4.359
  60.260	        14	    1200	     3.742
  60.280	        15	    1200	     3.873
  60.300	        14	    1200	     3.742
  60.320	        18	    1200	     4.243
  60.340	        12	    1200	     3.464
  60.360	        15	    1200	     3.873
  60.380	        22	    1200	     4.690
  60.400	        17	    1200	     4.123
  60.420	        18	    1200	     4.243
  60.440	        19	    1200	     4.359
  60.460	        19	    1200	     4.359
  60.480	        16	    1200	     4.000
  60.500	        19	    1200	     4.359
  60.520	        20	    1200	     4.472
  60.540	        18	    1200	     4.243
  60.560	        20	    1200	     4.472
  60.580	        19	    1200	     4.359
  60.600	        18	    1200	     4.243
  60.620	        16	    1200	     4.000
  60.640	        15	    1200	     3.873
  60.660	        20	    1200	     4.472
  60.680	        17	    1200	     4.123
  60.700	        11	    1200	     3.317
  60.720	        14	    1200	     3.742
  60.740	        21	    1200	     4.583
  60.760	        13	    1200	     3.606
  60.780	        17	    1200	     4.123
  60.800	        13	    1200	     3.606
  60.820	        22	    1200	     4.690
  60.840	        17	    1200	     4.123
  60.860	        13	    1200	     3.606
  60.880	        17	    1200	     4.123
  60.900	        13	    1200	     3.606
  60.920	        17	    1200	     4.123
  60.940	        16	    1200	     4.000
  60.960	        12	    1200	     3.464
  60.980	        17	    1200	     4.123
  61.000	        20	    1200	     4.472
  61.020	        23	    1200	     4.796
  61.040	        16	    1200	     4.000
  61.060	        18	    1200	     4.243
  61.080	        14	    1200	     3.742
  61.100	        11	    1200	     3.317
  61.120	        15	    1200	     3.873
  61.140	        17	    1200	     4.123
  61.160	        19	    1200	     4.359
  61.180	        11	    1200	     3.317
  61.200	        14	    1200	     3.742
  61.220	        17	    1200	     4.123
  61.240	        22	    1200	     4.690
  61.260	        15	    1200	     3.873
  61.280	         9	    1200	     3.000
  61.300	        15	    1200	     3.873
  61.320	        15	    1200	     3.873
  61.340	         9	    1200	     3.000
  61.360	        20	    1200	     4.472
  61.380	        17	    1200	     4.123
  61.400	        20	    1200	     4.472
  61.420	        15	    1200	     3.873
  61.440	        18	    1200	     4.243
  61.460	        14	    1200	     3.742
  61.480	        12	    1200	     3.464
  61.500	        11	    1200	     3.317
  61.520	        21	    1200	     4.583
  61.540	        15	    1200	     3.873
  61.560	        13	    1200	     3.606
  61.580	        18	    1200	     4.243
  61.600	        16	    1200	     4.000
  61.620	        20	    1200	     4.472
  61.640	        10	    1200	     3.162
  61.660	        21	    1200	     4.583
  61.680	        12	    1200	     3.464
  61.700	        15	    1200	     3.873
  61.720	        10	    1200	     3.162
  61.740	        21	    1200	     4.583
  61.760	        14	    1200	     3.742
  61.780	        16	    1200	     4.000
  61.800	        19	    1200	     4.359
  61.820	        11	    1200	     3.317
  61.840	        17	    1200	     4.123
  61.860	        25	    1200	     5.000
  61.880	        19	    1200	     4.359
  61.900	         7	    1200	     2.646
  61.920	        18	    1200	     4.243
  61.940	        23	    1200	     4.796
  61.960	        11	    1200	     3.317
  61.980	        17	    1200	     4.123
  62.000	        17	    1200	     4.123
  62.020	        17	    1200	     4.123
  62.040	        17	    1200	     4.123
  62.060	        12	    1200	     3.464
  62.080	        24	    1200	     4.899
  62.100	        18	    1200	     4.243
  62.120	        20	    1200	     4.472
  62.140	        18	    1200	     4.243
  62.160	        19	    1200	     4.359
  62.180	        19	    1200	     4.359
  62.200	        20	    1200	     4.472
  62.220	        14	    1200	     3.742
  62.240	        19	    1200	     4.359
  62.260	        14	    1200	     3.742
  62.280	        14	    1200	     3.742
  62.300	         9	    1200	     3.000
  62.320	        19	    1200	     4.359
  62.340	        13	    1200	     3.606
  62.360	        23	    1200	     4.796
  62.380	        19	    1200	     4.359
  62.400	        25	    1200	     5.000
  62.420	        18	    1200	     4.243
  62.440	        17	    1200	     4.123
  62.460	        13	    1200	     3.606
  62.480	        15	    1200	     3.873
  62.500	        21	    1200	     4.583
  62.520	        26	    1200	     5.099
  62.540	        19	    1200	     4.359
  62.560	        22	    1200	     4.690
  62.580	        15	    1200	     3.873
  62.600	        19	    1200	     4.359
  62.620	        19	    1200	     4.359
  62.640	        22	    1200	     4.690
  62.660	        15	    1200	     3.873
  62.680	        17	    1200	     4.123
  62.700	        19	    1200	     4.359
  62.720	        18	    1200	     4.243
  62.740	        17	    1200	     4.123
  62.760	         9	    1200	     3.000
  62.780	        17	    1200	     4.123
  62.800	        19	    1200	     4.359
  62.820	        23	    1200	     4.796
  62.840	        19	    1200	     4.359
  62.860	        27	    1200	     5.196
  62.880	        24	    1200	     4.899
  62.900	        19	    1200	     4.359
  62.920	        18	    1200	     4.243
  62.940	        15	    1200	     3.873
  62.960	        21	    1200	     4.583
  62.980	        19	    1200	     4.359
  63.000	        26	    1200	     5.099
  63.020	        21	    1200	     4.583
  63.040	        28	    1200	     5.292
  63.060	        23	    1200	     4.796
  63.080	        27	    1200	     5.196
  63.100	        19	    1200	     4.359
  63.120	        14	    1200	     3.742
  63.140	        14	    1200	     3.742
  63.160	        23	    1200	     4.796
  63.180	        16	    1200	     4.000
  63.200	        18	    1200	     4.243
  63.220	        27	    1200	     5.196
  63.240	        14	    1200	     3.742
  63.260	        16	    1200	     4.000
  63.280	        15	    1200	     3.873
  63.300	        14	    1200	     3.742
  63.320	        19	    1200	     4.359
  63.340	        17	    1200	     4.123
  63.360	        17	    1200	     4.123
  63.380	        14	    1200	     3.742
  63.400	        23	    1200	     4.796
  63.420	        23	    1200	     4.796
  63.440	        15	    1200	     3.873
  63.460	        21	    1200	     4.583
  63.480	        13	    1200	     3.606
  63.500	        19	    1200	     4.359
  63.520	        16	    1200	     4.000
  63.540	        20	    1200	     4.472
  63.560	        18	    1200	     4.243
  63.580	        24	    1200	     4.899
  63.600	        18	    1200	     4.243
  63.620	        31	    1200	     5.568
  63.640	        24	    1200	     4.899
  63.660	        25	    1200	     5.000
  63.680	        19	    1200	     4.359
  63.700	        29	    1200	     5.385
  63.720	        17	    1200	     4.123
  63.740	        26	    1200	     5.099
  63.760	        29	    1200	     5.385
  63.780	        26	    1200	     5.099
  63.800	        27	    1200	     5.196
  63.820	        22	    1200	     4.690
  63.840	        22	    1200	     4.690
  63.860	        23	    1200	     4.796
  63.880	        27	    1200	     5.196
  63.900	        26	    1200	     5.099
  63.920	        22	    1200	     4.690
  63.940	        25	    1200	     5.000
  63.960	        25	    1200	     5.000
  63.980	        18	    1200	     4.243
  64.000	        21	    1200	     4.583
  64.020	        24	    1200	     4.899
  64.040	        19	    1200	     4.359
  64.060	        22	    1200	     4.690
  64.080	        15	    1200	     3.873
  64.100	        25	    1200	     5.000
  64.120	        18	    1200	     4.243
  64.140	        17	    1200	     4.123
  64.160	        19	    1200	     4.359
  64.180	        21	    1200	     4.583
  64.200	        23	    1200	     4.796
  64.220	        15	    1200	     3.873
  64.240	        14	    1200	     3.742
  64.260	        21	    1200	     4.583
  64.280	        22	    1200	     4.690
  64.300	        16	    1200	     4.000
  64.320	        19	    1200	     4.359
  64.340	        12	    1200	     3.464
  64.360	        21	    1200	     4.583
  64.380	        18	    1200	     4.243
  64.400	        22	    1200	     4.690
  64.420	        23	    1200	     4.796
  64.440	        16	    1200	     4.000
  64.460	        14	    1200	     3.742
  64.480	        17	    1200	     4.123
  64.500	        14	    1200	     3.742
  64.520	        15	    1200	     3.873
  64.540	         9	    1200	     3.000
  64.560	        17	    1200	     4.123
  64.580	        20	    1200	     4.472
  64.600	        16	    1200	     4.000
  64.620	        16	    1200	     4.000
  64.640	        21	    1200	     4.583
  64.660	        13	    1200	     3.606
  64.680	        18	    1200	     4.243
  64.700	         6	    1200	     2.449
  64.720	        16	    1200	     4.000
  64.740	        19	    1200	     4.359
  64.760	        17	    1200	     4.123
  64.780	        15	    1200	     3.873
  64.800	        13	    1200	     3.606
  64.820	         8	    1200	     2.828
  64.840	         8	    1200	     2.828
  64.860	        12	    1200	     3.464
  64.880	        20	    1200	     4.472
  64.900	         7	    1200	     2.646
  64.920	        18	    1200	     4.243
  64.940	        12	    1200	     3.464
  64.960	        16	    1200	     4.000
  64.980	        17	    1200	     4.123
  65.000	        12	    1200	     3.464
  65.020	        12	    1200	     3.464
  65.040	        20	    1200	     4.472
  65.060	        15	    1200	     3.873
  65.080	        18	    1200	     4.243
  65.100	        17	    1200	     4.123
  65.120	        15	    1200	     3.873
  65.140	        15	    1200	     3.873
  65.160	        17	    1200	     4.123
  65.180	        10	    1200	     3.162
  65.200	        12	    1200	     3.464
  65.220	        18	    1200	     4.243
  65.240	        15	    1200	     3.873
  65.260	        14	    1200	     3.742
  65.280	        21	    1200	     4.583
  65.300	        28	    1200	     5.292
  65.320	        19	    1200	     4.359
  65.340	         9	    1200	     3.000
  65.360	        21	    1200	     4.583
  65.380	        20	    1200	     4.472
  65.400	        17	    1200	     4.123
  65.420	        20	    1200	     4.472
  65.440	        17	    1200	     4.123
  65.460	        19	    1200	     4.359
  65.480	        10	    1200	     3.162
  65.500	        10	    1200	     3.162
  65.520	         9	    1200	     3.000
  65.540	        16	    1200	     4.000
  65.560	        25	    1200	     5.000
  65.580	        19	    1200	     4.359
  65.600	        17	    1200	     4.123
  65.620	        24	    1200	     4.899
  65.640	        23	    1200	     4.796
  65.660	        20	    1200	     4.472
  65.680	        16	    1200	     4.000
  65.700	        16	    1200	     4.000
  65.720	        12	    1200	     3.464
  65.740	        20	    1200	     4.472
  65.760	        17	    1200	     4.123
  65.780	        20	    1200	     4.472
  65.800	         9	    1200	     3.000
  65.820	        15	    1200	     3.873
  65.840	        12	    1200	     3.464
  65.860	        13	    1200	     3.606
  65.880	        21	    1200	     4.583
  65.900	        16	    1200	     4.000
  65.920	        12	    1200	     3.464
  65.940	        28	    1200	     5.292
  65.960	        24	    1200	     4.899
  65.980	        27	    1200	     5.196
  66.000	        14	    1200	     3.742
  66.020	        19	    1200	     4.359
  66.040	        19	    1200	     4.359
  66.060	        21	    1200	     4.583
  66.080	        18	    1200	     4.243
  66.100	        18	    1200	     4.243
  66.120	        25	    1200	     5.000
  66.140	        15	    1200	     3.873
  66.160	        19	    1200	     4.359
  66.180	        18	    1200	     4.243
  66.200	        22	    1200	     4.690
  66.220	        17	    1200	     4.123
  66.240	        21	    1200	     4.583
  66.260	        22	    1200	     4.690
  66.280	        17	    1200	     4.123
  66.300	        19	    1200	     4.359
  66.320	        15	    1200	     3.873
  66.340	        17	    1200	     4.123
  66.360	        25	    1200	     5.000
  66.380	        30	    1200	     5.477
  66.400	        19	    1200	     4.359
  66.420	        24	    1200	     4.899
  66.440	        22	    1200	     4.690
  66.460	        21	    1200	     4.583
  66.480	        21	    1200	     4.583
  66.500	        28	    1200	     5.292
  66.520	        19	    1200	     4.359
  66.540	        20	    1200	     4.472
  66.560	        22	    1200	     4.690
  66.580	        21	    1200	     4.583
  66.600	        16	    1200	     4.000
  66.620	        24	    1200	     4.899
  66.640	        18	    1200	     4.243
  66.660	        21	    1200	     4.583
  66.680	        27	    1200	     5.196
  66.700	        21	    1200	     4.583
  66.720	        22	    1200	     4.690
  66.740	        32	    1200	     5.657
  66.760	        22	    1200	     4.690
  66.780	        22	    1200	     4.690
  66.800	        26	    1200	     5.099
  66.820	        27	    1200	     5.196
  66.840	        27	    1200	     5.196
  66.860	        27	    1200	     5.196
  66.880	        29	    1200	     5.385
  66.900	        20	    1200	     4.472
  66.920	        26	    1200	     5.099
  66.940	        35	    1200	     5.916
  66.960	        23	    1200	     4.796
  66.980	        35	    1200	     5.916
  67.000	        32	    1200	     5.657
  67.020	        45	    1200	     6.708
  67.040	        38	    1200	     6.164
  67.060	        39	    1200	     6.245
  67.080	        51	    1200	     7.141
  67.100	        55	    1200	     7.416
  67.120	        56	    1200	     7.483
  67.140	        65	    1200	     8.062
  67.160	        66	    1200	     8.124
  67.180	        60	    1200	     7.746
  67.200	        74	    1200	     8.602
  67.220	        77	    1200	     8.775
  67.240	        71	    1200	     8.426
  67.260	        91	    1200	     9.539
  67.280	       112	    1200	    10.583
  67.300	       104	    1200	    10.198
  67.320	       120	    1200	    10.954
  67.340	       119	    1200	    10.909
  67.360	       138	    1200	    11.747
  67.380	       167	    1200	    12.923
  67.400	       201	    1200	    14.177
  67.420	       194	    1200	    13.928
  67.440	       223	    1200	    14.933
  67.460	       245	    1200	    15.652
  67.480	       279	    1200	    16.703
  67.500	       317	    1200	    17.804
  67.520	       341	    1200	    18.466
  67.540	       350	    1200	    18.708
  67.560	       383	    1200	    19.570
  67.580	       389	    1200	    19.723
  67.600	       366	    1200	    19.131
  67.620	       406	    1200	    20.149
  67.640	       396	    1200	    19.900
  67.660	       348	    1200	    18.655
  67.680	       386	    1200	    19.647
  67.700	       381	    1200	    19.519
  67.720	       347	    1200	    18.628
  67.740	       319	    1200	    17.861
  67.760	       317	    1200	    17.804
  67.780	       289	    1200	    17.000
  67.800	       281	    1200	    16.763
  67.820	       258	    1200	    16.062
  67.840	       238	    1200	    15.427
  67.860	       200	    1200	    14.142
  67.880	       162	    1200	    12.728
  67.900	       163	    1200	    12.767
  67.920	       174	    1200	    13.191
  67.940	       131	    1200	    11.446
  67.960	       138	    1200	    11.747
  67.980	       104	    1200	    10.198
  68.000	        80	    1200	     8.944
  68.020	       104	    1200	    10.198
  68.040	        90	    1200	     9.487
  68.060	        74	    1200	     8.602
  68.080	        74	    1200	     8.602
  68.100	        61	    1200	     7.810
  68.120	        55	    1200	     7.416
  68.140	        54	    1200	     7.348
  68.160	        51	    1200	     7.141
  68.180	        44	    1200	     6.633
  68.200	        44	    1200	     6.633
  68.220	        40	    1200	     6.325
  68.240	        25	    1200	     5.000
  68.260	        30	    1200	     5.477
  68.280	        31	    1200	     5.568
  68.300	        34	    1200	     5.831
  68.320	        35	    1200	     5.916
  68.340	        34	    1200	     5.831
  68.360	        39	    1200	     6.245
  68.380	        34	    1200	     5.831
  68.400	        23	    1200	     4.796
  68.420	        31	    1200	     5.568
  68.440	        32	    1200	     5.657
  68.460	        31	    1200	     5.568
  68.480	        21	    1200	     4.583
  68.500	        19	    1200	     4.359
  68.520	        29	    1200	     5.385
  68.540	        22	    1200	     4.690
  68.560	        31	    1200	     5.568
  68.580	        25	    1200	     5.000
  68.600	        26	    1200	     5.099
  68.620	        23	    1200	     4.796
  68.640	        30	    1200	     5.477
  68.660	        25	    1200	     5.000
  68.680	        30	    1200	     5.477
  68.700	        29	    1200	     5.385
  68.720	        28	    1200	     5.292
  68.740	        17	    1200	     4.123
  68.760	        23	    1200	     4.796
  68.780	        18	    1200	     4.243
  68.800	        24	    1200	     4.899
  68.820	        26	    1200	     5.099
  68.840	        16	    1200	     4.000
  68.860	        16	    1200	     4.000
  68.880	        19	    1200	     4.359
  68.900	        21	    1200	     4.583
  68.920	        20	    1200	     4.472
  68.940	        14	    1200	     3.742
  68.960	        17	    1200	     4.123
  68.980	        18	    1200	     4.243
  69.000	        19	    1200	     4.359
  69.020	        20	    1200	     4.472
  69.040	        11	    1200	     3.317
  69.060	        24	    1200	     4.899
  69.080	        23	    1200	     4.796
  69.100	        16	    1200	     4.000
  69.120	        12	    1200	     3.464
  69.140	        24	    1200	     4.899
  69.160	        14	    1200	     3.742
  69.180	        18	    1200	     4.243
  69.200	        16	    1200	     4.000
  69.220	        15	    1200	     3.873
  69.240	        16	    1200	     4.000
  69.260	        11	    1200	     3.317
  69.280	        17	    1200	     4.123
  69.300	        19	    1200	     4.359
  69.320	        24	    1200	     4.899
  69.340	        21	    1200	     4.583
  69.360	        11	    1200	     3.317
  69.380	        13	    1200	     3.606
  69.400	        15	    1200	     3.873
  69.420	        19	    1200	     4.359
  69.440	        21	    1200	     4.583
  69.460	        17	    1200	     4.123
  69.480	        18	    1200	     4.243
  69.500	        17	    1200	     4.123
  69.520	        18	    1200	     4.243
  69.540	        17	    1200	     4.123
  69.560	        23	    1200	     4.796
  69.580	        18	    1200	     4.243
  69.600	        14	    1200	     3.742
  69.620	        10	    1200	     3.162
  69.640	        15	    1200	     3.873
  69.660	        15	    1200	     3.873
  69.680	        16	    1200	     4.000
  69.700	        16	    1200	     4.000
  69.720	        22	    1200	     4.690
  69.740	        15	    1200	     3.873
  69.760	        18	    1200	     4.243
  69.780	        20	    1200	     4.472
  69.800	        16	    1200	     4.000
  69.820	        15	    1200	     3.873
  69.840	        10	    1200	     3.162
  69.860	         9	    1200	     3.000
  69.880	        19	    1200	     4.359
  69.900	        16	    1200	     4.000
  69.920	        15	    1200	     3.873
  69.940	        11	    1200	     3.317
  69.960	        14	    1200	     3.742
  69.980	        18	    1200	     4.243
  70.000	        14	    1200	     3.742
  70.020	        18	    1200	     4.243
  70.040	        11	    1200	     3.317
  70.060	        16	    1200	     4.000
  70.080	        17	    1200	     4.123
  70.100	        13	    1200	     3.606
  70.120	         7	    1200	     2.646
  70.140	        17	    1200	     4.123
  70.160	        13	    1200	     3.606
  70.180	        14	    1200	     3.742
  70.200	        16	    1200	     4.000
  70.220	        12	    1200	     3.464
  70.240	        11	    1200	     3.317
  70.260	        18	    1200	     4.243
  70.280	        15	    1200	     3.873
  70.300	        11	    1200	     3.317
  70.320	        15	    1200	     3.873
  70.340	        13	    1200	     3.606
  70.360	        14	    1200	     3.742
  70.380	         9	    1200	     3.000
  70.400	        19	    1200	     4.359
  70.420	        15	    1200	     3.873
  70.440	        16	    1200	     4.000
  70.460	        13	    1200	     3.606
  70.480	        15	    1200	     3.873
  70.500	        20	    1200	     4.472
  70.520	        15	    1200	     3.873
  70.540	        14	    1200	     3.742
  70.560	        14	    1200	     3.742
  70.580	        19	    1200	     4.359
  70.600	        25	    1200	     5.000
  70.620	        11	    1200	     3.317
  70.640	        26	    1200	     5.099
  70.660	        14	    1200	     3.742
  70.680	        17	    1200	     4.123
  70.700	        10	    1200	     3.162
  70.720	        17	    1200	     4.123
  70.740	        16	    1200	     4.000
  70.760	        16	    1200	     4.000
  70.780	        12	    1200	     3.464
  70.800	        17	    1200	     4.123
  70.820	        17	    1200	     4.123
  70.840	        10	    1200	     3.162
  70.860	        13	    1200	     3.606
  70.880	        17	    1200	     4.123
  70.900	        11	    1200	     3.317
  70.920	        16	    1200	     4.000
  70.940	        13	    1200	     3.606
  70.960	        13	    1200	     3.606
  70.980	        16	    1200	     4.000
  71.000	        18	    1200	     4.243
  71.020	        18	    1200	     4.243
  71.040	        16	    1200	     4.000
  71.060	        10	    1200	     3.162
  71.080	         9	    1200	     3.000
  71.100	        18	    1200	     4.243
  71.120	        14	    1200	     3.742
  71.140	        19	    1200	     4.359
  71.160	        17	    1200	     4.123
  71.180	        14	    1200	     3.742
  71.200	         8	    1200	     2.828
  71.220	        16	    1200	     4.000
  71.240	        10	    1200	     3.162
  71.260	        15	    1200	     3.873
  71.280	        14	    1200	     3.742
  71.300	        17	    1200	     4.123
  71.320	        13	    1200	     3.606
  71.340	        14	    1200	     3.742
  71.360	         9	    1200	     3.000
  71.380	        22	    1200	     4.690
  71.400	         9	    1200	     3.000
  71.420	        12	    1200	     3.464
  71.440	        15	    1200	     3.873
  71.460	         9	    1200	     3.000
  71.480	        18	    1200	     4.243
  71.500	        17	    1200	     4.123
  71.520	        18	    1200	     4.243
  71.540	        18	    1200	     4.243
  71.560	        13	    1200	     3.606
  71.580	        10	    1200	     3.162
  71.600	        13	    1200	     3.606
  71.620	        19	    1200	     4.359
  71.640	        19	    1200	     4.359
  71.660	        18	    1200	     4.243
  71.680	        13	    1200	     3.606
  71.700	        12	    1200	     3.464
  71.720	        10	    1200	     3.162
  71.740	        11	    1200	     3.317
  71.760	        17	    1200	     4.123
  71.780	        12	    1200	     3.464
  71.800	        15	    1200	     3.873
  71.820	        17	    1200	     4.123
  71.840	        19	    1200	     4.359
  71.860	        12	    1200	     3.464
  71.880	        13	    1200	     3.606
  71.900	        18	    1200	     4.243
  71.920	        12	    1200	     3.464
  71.940	        16	    1200	     4.000
  71.960	        20	    1200	     4.472
  71.980	        12	    1200	     3.464
  72.000	        11	    1200	     3.317
  72.020	        13	    1200	     3.606
  72.040	         9	    1200	     3.000
  72.060	        17	    1200	     4.123
  72.080	        20	    1200	     4.472
  72.100	        12	    1200	     3.464
  72.120	        27	    1200	     5.196
  72.140	        31	    1200	     5.568
  72.160	        29	    1200	     5.385
  72.180	        21	    1200	     4.583
  72.200	        30	    1200	     5.477
  72.220	        14	    1200	     3.742
  72.240	        33	    1200	     5.745
  72.260	        40	    1200	     6.325
  72.280	        39	    1200	     6.245
  72.300	        31	    1200	     5.568
  72.320	        29	    1200	     5.385
  72.340	        42	    1200	     6.481
  72.360	        33	    1200	     5.745
  72.380	        36	    1200	     6.000
  72.400	        35	    1200	     5.916
  72.420	        36	    1200	     6.000
  72.440	        35	    1200	     5.916
  72.460	        34	    1200	     5.831
  72.480	        32	    1200	     5.657
  72.500	        35	    1200	     5.916
  72.520	        23	    1200	     4.796
  72.540	        30	    1200	     5.477
  72.560	        22	    1200	     4.690
  72.580	        27	    1200	     5.196
  72.600	        30	    1200	     5.477
  72.620	        26	    1200	     5.099
  72.640	        22	    1200	     4.690
  72.660	        36	    1200	     6.000
  72.680	        23	    1200	     4.796
  72.700	        18	    1200	     4.243
  72.720	        23	    1200	     4.796
  72.740	        15	    1200	     3.873
  72.760	        25	    1200	     5.000
  72.780	        18	    1200	     4.243
  72.800	        23	    1200	     4.796
  72.820	        20	    1200	     4.472
  72.840	        16	    1200	     4.000
  72.860	        15	    1200	     3.873
  72.880	        17	    1200	     4.123
  72.900	        18	    1200	     4.243
  72.920	        13	    1200	     3.606
  72.940	        12	    1200	     3.464
  72.960	        14	    1200	     3.742
  72.980	        13	    1200	     3.606
  73.000	        13	    1200	     3.606
  73.020	         9	    1200	     3.000
  73.040	        21	    1200	     4.583
  73.060	        11	    1200	     3.317
  73.080	        20	    1200	     4.472
  73.100	        13	    1200	     3.606
  73.120	         8	    1200	     2.828
  73.140	         8	    1200	     2.828
  73.160	        13	    1200	     3.606
  73.180	        26	    1200	     5.099
  73.200	        23	    1200	     4.796
  73.220	        15	    1200	     3.873
  73.240	        13	    1200	     3.606
  73.260	        15	    1200	     3.873
  73.280	        13	    1200	     3.606
  73.300	        13	    1200	     3.606
  73.320	        10	    1200	     3.162
  73.340	        13	    1200	     3.606
  73.360	        13	    1200	     3.606
  73.380	        20	    1200	     4.472
  73.400	        16	    1200	     4.000
  73.420	        12	    1200	     3.464
  73.440	        12	    1200	     3.464
  73.460	        13	    1200	     3.606
  73.480	        12	    1200	     3.464
  73.500	         9	    1200	     3.000
  73.520	        12	    1200	     3.464
  73.540	        13	    1200	     3.606
  73.560	        13	    1200	     3.606
  73.580	        12	    1200	     3.464
  73.600	        13	    1200	     3.606
  73.620	        21	    1200	     4.583
  73.640	         9	    1200	     3.000
  73.660	        10	    1200	     3.162
  73.680	        14	    1200	     3.742
  73.700	        13	    1200	     3.606
  73.720	        17	    1200	     4.123
  73.740	        12	    1200	     3.464
  73.760	        20	    1200	     4.472
  73.780	        12	    1200	     3.464
  73.800	        13	    1200	     3.606
  73.820	        21	    1200	     4.583
  73.840	        16	    1200	     4.000
  73.860	        11	    1200	     3.317
  73.880	        14	    1200	     3.742
  73.900	        12	    1200	     3.464
  73.920	        11	    1200	     3.317
  73.940	        22	    1200	     4.690
  73.960	        14	    1200	     3.742
  73.980	         9	    1200	     3.000
  74.000	         8	    1200	     2.828
  74.020	         8	    1200	     2.828
  74.040	        20	    1200	     4.472
  74.060	         9	    1200	     3.000
  74.080	        14	    1200	     3.742
  74.100	        13	    1200	     3.606
  74.120	        10	    1200	     3.162
  74.140	        13	    1200	     3.606
  74.160	        13	    1200	     3.606
  74.180	        15	    1200	     3.873
  74.200	         6	    1200	     2.449
  74.220	        15	    1200	     3.873
  74.240	        13	    1200	     3.606
  74.260	         8	    1200	     2.828
  74.280	        15	    1200	     3.873
  74.300	        14	    1200	     3.742
  74.320	        17	    1200	     4.123
  74.340	        15	    1200	     3.873
  74.360	        17	    1200	     4.123
  74.380	        17	    1200	     4.123
  74.400	         9	    1200	     3.000
  74.420	        20	    1200	     4.472
  74.440	        10	    1200	     3.162
  74.460	        15	    1200	     3.873
  74.480	         8	    1200	     2.828
  74.500	         8	    1200	     2.828
  74.520	        20	    1200	     4.472
  74.540	        16	    1200	     4.000
  74.560	         7	    1200	     2.646
  74.580	        20	    1200	     4.472
  74.600	        13	    1200	     3.606
  74.620	        10	    1200	     3.162
  74.640	        18	    1200	     4.243
  74.660	        17	    1200	     4.123
  74.680	        15	    1200	     3.873
  74.700	        10	    1200	     3.162
  74.720	         7	    1200	     2.646
  74.740	        11	    1200	     3.317
  74.760	         8	    1200	     2.828
  74.780	        16	    1200	     4.000
  74.800	        15	    1200	     3.873
  74.820	        14	    1200	     3.742
  74.840	        13	    1200	     3.606
  74.860	        15	    1200	     3.873
  74.880	        14	    1200	     3.742
  74.900	        13	    1200	     3.606
  74.920	         9	    1200	     3.000
  74.940	         6	    1200	     2.449
  74.960	        14	    1200	     3.742
  74.980	        16	    1200	     4.000
  75.000	        18	    1200	     4.243
  75.020	        15	    1200	     3.873
  75.040	        18	    1200	     4.243
  75.060	         4	    1200	     2.000
  75.080	        10	    1200	     3.162
  75.100	        15	    1200	     3.873
  75.120	        15	    1200	     3.873
  75.140	        16	    1200	     4.000
  75.160	        18	    1200	     4.243
  75.180	        17	    1200	     4.123
  75.200	        11	    1200	     3.317
  75.220	        12	    1200	     3.464
  75.240	        16	    1200	     4.000
  75.260	        17	    1200	     4.123
  75.280	        16	    1200	     4.000
  75.300	        21	    1200	     4.583
  75.320	        13	    1200	     3.606
  75.340	        22	    1200	     4.690
  75.360	        13	    1200	     3.606
  75.380	        14	    1200	     3.742
  75.400	        20	    1200	     4.472
  75.420	        11	    1200	     3.317
  75.440	        17	    1200	     4.123
  75.460	        17	    1200	     4.123
  75.480	        15	    1200	     3.873
  75.500	        20	    1200	     4.472
  75.520	        18	    1200	     4.243
  75.540	        21	    1200	     4.583
  75.560	        22	    1200	     4.690
  75.580	        21	    1200	     4.583
  75.600	        19	    1200	     4.359
  75.620	        12	    1200	     3.464
  75.640	        14	    1200	     3.742
  75.660	        14	    1200	     3.742
  75.680	        25	    1200	     5.000
  75.700	        18	    1200	     4.243
  75.720	        11	    1200	     3.317
  75.740	        19	    1200	     4.359
  75.760	        21	    1200	     4.583
  75.780	        21	    1200	     4.583
  75.800	        24	    1200	     4.899
  75.820	        18	    1200	     4.243
  75.840	        17	    1200	     4.123
  75.860	        20	    1200	     4.472
  75.880	        13	    1200	     3.606
  75.900	        11	    1200	     3.317
  75.920	        17	    1200	     4.123
  75.940	        27	    1200	     5.196
  75.960	        17	    1200	     4.123
  75.980	        25	    1200	     5.000
  76.000	        19	    1200	     4.359
  76.020	        18	    1200	     4.243
  76.040	        25	    1200	     5.000
  76.060	        19	    1200	     4.359
  76.080	        29	    1200	     5.385
  76.100	        24	    1200	     4.899
  76.120	        26	    1200	     5.099
  76.140	        29	    1200	     5.385
  76.160	        33	    1200	     5.745
  76.180	        28	    1200	     5.292
  76.200	        35	    1200	     5.916
  76.220	        33	    1200	     5.745
  76.240	        33	    1200	     5.745
  76.260	        29	    1200	     5.385
  76.280	        33	    1200	     5.745
  76.300	        39	    1200	     6.245
  76.320	        39	    1200	     6.245
  76.340	        37	    1200	     6.083
  76.360	        38	    1200	     6.164
  76.380	        38	    1200	     6.164
  76.400	        31	    1200	     5.568
  76.420	        50	    1200	     7.071
  76.440	        39	    1200	     6.245
  76.460	        42	    1200	     6.481
  76.480	        44	    1200	     6.633
  76.500	        43	    1200	     6.557
  76.520	        41	    1200	     6.403
  76.540	        65	    1200	     8.062
  76.560	        63	    1200	     7.937
  76.580	        82	    1200	     9.055
  76.600	        82	    1200	     9.055
  76.620	        78	    1200	     8.832
  76.640	        92	    1200	     9.592
  76.660	        80	    1200	     8.944
  76.680	        96	    1200	     9.798
  76.700	       124	    1200	    11.136
  76.720	       134	    1200	    11.576
  76.740	       122	    1200	    11.045
  76.760	       154	    1200	    12.410
  76.780	       135	    1200	    11.619
  76.800	       180	    1200	    13.416
  76.820	       213	    1200	    14.595
  76.840	       201	    1200	    14.177
  76.860	       209	    1200	    14.457
  76.880	       232	    1200	    15.232
  76.900	       240	    1200	    15.492
  76.920	       237	    1200	    15.395
  76.940	       265	    1200	    16.279
  76.960	       251	    1200	    15.843
  76.980	       256	    1200	    16.000
  77.000	       238	    1200	    15.427
  77.020	       228	    1200	    15.100
  77.040	       233	    1200	    15.264
  77.060	       246	    1200	    15.684
  77.080	       250	    1200	    15.811
  77.100	       240	    1200	    15.492
  77.120	       213	    1200	    14.595
  77.140	       218	    1200	    14.765
  77.160	       215	    1200	    14.663
  77.180	       206	    1200	    14.353
  77.200	       177	    1200	    13.304
  77.220	       160	    1200	    12.649
  77.240	       156	    1200	    12.490
  77.260	       164	    1200	    12.806
  77.280	       145	    1200	    12.042
  77.300	       135	    1200	    11.619
  77.320	       130	    1200	    11.402
  77.340	       103	    1200	    10.149
  77.360	        99	    1200	     9.950
  77.380	        88	    1200	     9.381
  77.400	        83	    1200	     9.110
  77.420	        91	    1200	     9.539
  77.440	        77	    1200	     8.775
  77.460	        79	    1200	     8.888
  77.480	        49	    1200	     7.000
  77.500	        64	    1200	     8.000
  77.520	        54	    1200	     7.348
  77.540	        46	    1200	     6.782
  77.560	        49	    1200	     7.000
  77.580	        45	    1200	     6.708
  77.600	        45	    1200	     6.708
  77.620	        42	    1200	     6.481
  77.640	        32	    1200	     5.657
  77.660	        39	    1200	     6.245
  77.680	        29	    1200	     5.385
  77.700	        30	    1200	     5.477
  77.720	        21	    1200	     4.583
  77.740	        24	    1200	     4.899
  77.760	        37	    1200	     6.083
  77.780	        32	    1200	     5.657
  77.800	        20	    1200	     4.472
  77.820	        31	    1200	     5.568
  77.840	        20	    1200	     4.472
  77.860	        26	    1200	     5.099
  77.880	        25	    1200	     5.000
  77.900	        17	    1200	     4.123
  77.920	        24	    1200	     4.899
  77.940	        19	    1200	     4.359
  77.960	        24	    1200	     4.899
  77.980	        17	    1200	     4.123
  78.000	        23	    1200	     4.796
  78.020	        19	    1200	     4.359
  78.040	        17	    1200	     4.123
  78.060	        19	    1200	     4.359
  78.080	        18	    1200	     4.243
  78.100	        11	    1200	     3.317
  78.120	        21	    1200	     4.583
  78.140	        26	    1200	     5.099
  78.160	        27	    1200	     5.196
  78.180	        21	    1200	     4.583
  78.200	        20	    1200	     4.472
  78.220	        23	    1200	     4.796
  78.240	        18	    1200	     4.243
  78.260	        18	    1200	     4.243
  78.280	        18	    1200	     4.243
  78.300	        17	    1200	     4.123
  78.320	        24	    1200	     4.899
  78.340	        21	    1200	     4.583
  78.360	        22	    1200	     4.690
  78.380	        13	    1200	     3.606
  78.400	        14	    1200	     3.742
  78.420	         6	    1200	     2.449
  78.440	        21	    1200	     4.583
  78.460	        15	    1200	     3.873
  78.480	        17	    1200	     4.123
  78.500	        26	    1200	     5.099
  78.520	        14	    1200	     3.742
  78.540	        22	    1200	     4.690
  78.560	        25	    1200	     5.000
  78.580	        12	    1200	     3.464
  78.600	        15	    1200	     3.873
  78.620	         8	    1200	     2.828
  78.640	        25	    1200	     5.000
  78.660	        14	    1200	     3.742
  78.680	        16	    1200	     4.000
  78.700	        10	    1200	     3.162
  78.720	        18	    1200	     4.243
  78.740	        20	    1200	     4.472
  78.760	        19	    1200	     4.359
  78.780	        14	    1200	     3.742
  78.800	        16	    1200	     4.000
  78.820	        16	    1200	     4.000
  78.840	        11	    1200	     3.317
  78.860	        15	    1200	     3.873
  78.880	        15	    1200	     3.873
  78.900	         9	    1200	     3.000
  78.920	        16	    1200	     4.000
  78.940	        15	    1200	     3.873
  78.960	        21	    1200	     4.583
  78.980	        24	    1200	     4.899
  79.000	        17	    1200	     4.123
  79.020	        20	    1200	     4.472
  79.040	         7	    1200	     2.646
  79.060	        15	    1200	     3.873
  79.080	        16	    1200	     4.000
  79.100	        20	    1200	     4.472
  79.120	        15	    1200	     3.873
  79.140	        16	    1200	     4.000
  79.160	        18	    1200	     4.243
  79.180	        20	    1200	     4.472
  79.200	        14	    1200	     3.742
  79.220	        17	    1200	     4.123
  79.240	         9	    1200	     3.000
  79.260	        10	    1200	     3.162
  79.280	        15	    1200	     3.873
  79.300	         8	    1200	     2.828
  79.320	        20	    1200	     4.472
  79.340	        12	    1200	     3.464
  79.360	        17	    1200	     4.123
  79.380	        21	    1200	     4.583
  79.400	        16	    1200	     4.000
  79.420	         9	    1200	     3.000
  79.440	        11	    1200	     3.317
  79.460	        12	    1200	     3.464
  79.480	        14	    1200	     3.742
  79.500	        19	    1200	     4.359
  79.520	        18	    1200	     4.243
  79.540	        15	    1200	     3.873
  79.560	        14	    1200	     3.742
  79.580	        14	    1200	     3.742
  79.600	         8	    1200	     2.828
  79.620	        13	    1200	     3.606
  79.640	        13	    1200	     3.606
  79.660	        14	    1200	     3.742
  79.680	        14	    1200	     3.742
  79.700	        18	    1200	     4.243
  79.720	        25	    1200	     5.000
  79.740	        21	    1200	     4.583
  79.760	        10	    1200	     3.162
  79.780	         9	    1200	     3.000
  79.800	        12	    1200	     3.464
  79.820	        21	    1200	     4.583
  79.840	        17	    1200	     4.123
  79.860	        16	    1200	     4.000
  79.880	        17	    1200	     4.123
  79.900	        26	    1200	     5.099
  79.920	        18	    1200	     4.243
  79.940	        13	    1200	     3.606
  79.960	        21	    1200	     4.583
  79.980	        17	    1200	     4.123
  80.000	        21	    1200	     4.583
  80.020	        12	    1200	     3.464
  80.040	        19	    1200	     4.359
  80.060	        16	    1200	     4.000
  80.080	        10	    1200	     3.162
  80.100	        20	    1200	     4.472
  80.120	        19	    1200	     4.359
  80.140	        23	    1200	     4.796
  80.160	        21	    1200	     4.583
  80.180	        14	    1200	     3.742
  80.200	        18	    1200	     4.243
  80.220	        14	    1200	     3.742
  80.240	        22	    1200	     4.690
  80.260	        21	    1200	     4.583
  80.280	        18	    1200	     4.243
  80.300	        26	    1200	     5.099
  80.320	        14	    1200	     3.742
  80.340	        18	    1200	     4.243
  80.360	        15	    1200	     3.873
  80.380	        20	    1200	     4.472
  80.400	        12	    1200	     3.464
  80.420	        22	    1200	     4.690
  80.440	        14	    1200	     3.742
  80.460	        24	    1200	     4.899
  80.480	        16	    1200	     4.000
  80.500	        25	    1200	     5.000
  80.520	        13	    1200	     3.606
  80.540	        12	    1200	     3.464
  80.560	        20	    1200	     4.472
  80.580	        20	    1200	     4.472
  80.600	        24	    1200	     4.899
  80.620	        13	    1200	     3.606
  80.640	        17	    1200	     4.123
  80.660	        16	    1200	     4.000
  80.680	        12	    1200	     3.464
  80.700	        26	    1200	     5.099
  80.720	        16	    1200	     4.000
  80.740	        12	    1200	     3.464
  80.760	        25	    1200	     5.000
  80.780	        17	    1200	     4.123
  80.800	        15	    1200	     3.873
  80.820	        21	    1200	     4.583
  80.840	        18	    1200	     4.243
  80.860	        13	    1200	     3.606
  80.880	        16	    1200	     4.000
  80.900	        15	    1200	     3.873
  80.920	        26	    1200	     5.099
  80.940	        20	    1200	     4.472
  80.960	        20	    1200	     4.472
  80.980	        26	    1200	     5.099
  81.000	        23	    1200	     4.796
  81.020	        24	    1200	     4.899
  81.040	        34	    1200	     5.831
  81.060	        32	    1200	     5.657
  81.080	        33	    1200	     5.745
  81.100	        19	    1200	     4.359
  81.120	        31	    1200	     5.568
  81.140	        27	    1200	     5.196
  81.160	        28	    1200	     5.292
  81.180	        29	    1200	     5.385
  81.200	        32	    1200	     5.657
  81.220	        34	    1200	     5.831
  81.240	        42	    1200	     6.481
  81.260	        52	    1200	     7.211
  81.280	        29	    1200	     5.385
  81.300	        58	    1200	     7.616
  81.320	        60	    1200	     7.746
  81.340	        60	    1200	     7.746
  81.360	        68	    1200	     8.246
  81.380	        57	    1200	     7.550
  81.400	        78	    1200	     8.832
  81.420	        57	    1200	     7.550
  81.440	        80	    1200	     8.944
  81.460	        63	    1200	     7.937
  81.480	        61	    1200	     7.810
  81.500	        63	    1200	     7.937
  81.520	        85	    1200	     9.220
  81.540	        83	    1200	     9.110
  81.560	        73	    1200	     8.544
  81.580	        73	    1200	     8.544
  81.600	        66	    1200	     8.124
  81.620	        83	    1200	     9.110
  81.640	        63	    1200	     7.937
  81.660	        69	    1200	     8.307
  81.680	        75	    1200	     8.660
  81.700	        60	    1200	     7.746
  81.720	        55	    1200	     7.416
  81.740	        63	    1200	     7.937
  81.760	        58	    1200	     7.616
  81.780	        53	    1200	     7.280
  81.800	        48	    1200	     6.928
  81.820	        58	    1200	     7.616
  81.840	        51	    1200	     7.141
  81.860	        53	    1200	     7.280
  81.880	        47	    1200	     6.856
  81.900	        54	    1200	     7.348
  81.920	        30	    1200	     5.477
  81.940	        51	    1200	     7.141
  81.960	        41	    1200	     6.403
  81.980	        24	    1200	     4.899
  82.000	        35	    1200	     5.916
  82.020	        29	    1200	     5.385
  82.040	        36	    1200	     6.000
  82.060	        28	    1200	     5.292
  82.080	        29	    1200	     5.385
  82.100	        29	    1200	     5.385
  82.120	        23	    1200	     4.796
  82.140	        29	    1200	     5.385
  82.160	        23	    1200	     4.796
  82.180	        20	    1200	     4.472
  82.200	        30	    1200	     5.477
  82.220	        19	    1200	     4.359
  82.240	        31	    1200	     5.568
  82.260	        21	    1200	     4.583
  82.280	        17	    1200	     4.123
  82.300	        17	    1200	     4.123
  82.320	        15	    1200	     3.873
  82.340	        11	    1200	     3.317
  82.360	        20	    1200	     4.472
  82.380	        18	    1200	     4.243
  82.400	        17	    1200	     4.123
  82.420	        28	    1200	     5.292
  82.440	        24	    1200	     4.899
  82.460	        20	    1200	     4.472
  82.480	        23	    1200	     4.796
  82.500	        20	    1200	     4.472
  82.520	        20	    1200	     4.472
  82.540	        25	    1200	     5.000
  82.560	        24	    1200	     4.899
  82.580	        15	    1200	     3.873
  82.600	        25	    1200	     5.000
  82.620	        26	    1200	     5.099
  82.640	        18	    1200	     4.243
  82.660	        17	    1200	     4.123
  82.680	        14	    1200	     3.742
  82.700	        25	    1200	     5.000
  82.720	        25	    1200	     5.000
  82.740	        21	    1200	     4.583
  82.760	        15	    1200	     3.873
  82.780	        22	    1200	     4.690
  82.800	        17	    1200	     4.123
  82.820	        14	    1200	     3.742
  82.840	        19	    1200	     4.359
  82.860	        19	    1200	     4.359
  82.880	        24	    1200	     4.899
  82.900	        11	    1200	     3.317
  82.920	        18	    1200	     4.243
  82.940	        15	    1200	     3.873
  82.960	        12	    1200	     3.464
  82.980	        12	    1200	     3.464
  83.000	        27	    1200	     5.196
  83.020	        17	    1200	     4.123
  83.040	        26	    1200	     5.099
  83.060	        14	    1200	     3.742
  83.080	        18	    1200	     4.243
  83.100	        16	    1200	     4.000
  83.120	        13	    1200	     3.606
  83.140	        21	    1200	     4.583
  83.160	        17	    1200	     4.123
  83.180	        12	    1200	     3.464
  83.200	        21	    1200	     4.583
  83.220	        16	    1200	     4.000
  83.240	        17	    1200	     4.123
  83.260	        20	    1200	     4.472
  83.280	        13	    1200	     3.606
  83.300	        19	    1200	     4.359
  83.320	        21	    1200	     4.583
  83.340	        18	    1200	     4.243
  83.360	        17	    1200	     4.123
  83.380	        13	    1200	     3.606
  83.400	        16	    1200	     4.000
  83.420	        17	    1200	     4.123
  83.440	        16	    1200	     4.000
  83.460	        16	    1200	     4.000
  83.480	        25	    1200	     5.000
  83.500	        22	    1200	     4.690
  83.520	        12	    1200	     3.464
  83.540	        19	    1200	     4.359
  83.560	        15	    1200	     3.873
  83.580	        13	    1200	     3.606
  83.600	        15	    1200	     3.873
  83.620	        14	    1200	     3.742
  83.640	        18	    1200	     4.243
  83.660	        16	    1200	     4.000
  83.680	        11	    1200	     3.317
  83.700	        14	    1200	     3.742
  83.720	        14	    1200	     3.742
  83.740	        18	    1200	     4.243
  83.760	        14	    1200	     3.742
  83.780	        16	    1200	     4.000
  83.800	        16	    1200	     4.000
  83.820	        16	    1200	     4.000
  83.840	        20	    1200	     4.472
  83.860	        15	    1200	     3.873
  83.880	        16	    1200	     4.000
  83.900	        16	    1200	     4.000
  83.920	        11	    1200	     3.317
  83.940	        11	    1200	     3.317
  83.960	        20	    1200	     4.472
  83.980	        11	    1200	     3.317
  84.000	        12	    1200	     3.464
  84.020	        10	    1200	     3.162
  84.040	        15	    1200	     3.873
  84.060	        14	    1200	     3.742
  84.080	        13	    1200	     3.606
  84.100	        19	    1200	     4.359
  84.120	        16	    1200	     4.000
  84.140	        13	    1200	     3.606
  84.160	        10	    1200	     3.162
  84.180	        15	    1200	     3.873
  84.200	        23	    1200	     4.796
  84.220	        14	    1200	     3.742
  84.240	        16	    1200	     4.000
  84.260	        16	    1200	     4.000
  84.280	        16	    1200	     4.000
  84.300	        19	    1200	     4.359
  84.320	        11	    1200	     3.317
  84.340	        16	    1200	     4.000
  84.360	        18	    1200	     4.243
  84.380	        12	    1200	     3.464
  84.400	        20	    1200	     4.472
  84.420	        16	    1200	     4.000
  84.440	        12	    1200	     3.464
  84.460	        23	    1200	     4.796
  84.480	         8	    1200	     2.828
  84.500	        24	    1200	     4.899
  84.520	        15	    1200	     3.873
  84.540	        18	    1200	     4.243
  84.560	        14	    1200	     3.742
  84.580	        15	    1200	     3.873
  84.600	        16	    1200	     4.000
  84.620	        17	    1200	     4.123
  84.640	        19	    1200	     4.359
  84.660	        11	    1200	     3.317
  84.680	        22	    1200	     4.690
  84.700	        20	    1200	     4.472
  84.720	        19	    1200	     4.359
  84.740	        13	    1200	     3.606
  84.760	        21	    1200	     4.583
  84.780	        20	    1200	     4.472
  84.800	        11	    1200	     3.317
  84.820	        19	    1200	     4.359
  84.840	        21	    1200	     4.583
  84.860	        12	    1200	     3.464
  84.880	        19	    1200	     4.359
  84.900	        23	    1200	     4.796
  84.920	        17	    1200	     4.123
  84.940	        24	    1200	     4.899
  84.960	        15	    1200	     3.873
  84.980	        19	    1200	     4.359
  85.000	        19	    1200	     4.359
  85.020	        15	    1200	     3.873
  85.040	        17	    1200	     4.123
  85.060	        20	    1200	     4.472
  85.080	        16	    1200	     4.000
  85.100	        14	    1200	     3.742
  85.120	        19	    1200	     4.359
  85.140	        15	    1200	     3.873
  85.160	        19	    1200	     4.359
  85.180	        17	    1200	     4.123
  85.200	        18	    1200	     4.243
  85.220	        15	    1200	     3.873
  85.240	        26	    1200	     5.099
  85.260	        23	    1200	     4.796
  85.280	        16	    1200	     4.000
  85.300	        25	    1200	     5.000
  85.320	        21	    1200	     4.583
  85.340	        24	    1200	     4.899
  85.360	        23	    1200	     4.796
  85.380	        21	    1200	     4.583
  85.400	        17	    1200	     4.123
  85.420	        20	    1200	     4.472
  85.440	        32	    1200	     5.657
  85.460	        24	    1200	     4.899
  85.480	        22	    1200	     4.690
  85.500	        18	    1200	     4.243
  85.520	        28	    1200	     5.292
  85.540	        38	    1200	     6.164
  85.560	        32	    1200	     5.657
  85.580	        40	    1200	     6.325
  85.600	        29	    1200	     5.385
  85.620	        40	    1200	     6.325
  85.640	        30	    1200	     5.477
  85.660	        34	    1200	     5.831
  85.680	        45	    1200	     6.708
  85.700	        45	    1200	     6.708
  85.720	        41	    1200	     6.403
  85.740	        61	    1200	     7.810
  85.760	        61	    1200	     7.810
  85.780	        66	    1200	     8.124
  85.800	        73	    1200	     8.544
  85.820	        84	    1200	     9.165
  85.840	        76	    1200	     8.718
  85.860	       106	    1200	    10.296
  85.880	       107	    1200	    10.344
  85.900	       104	    1200	    10.198
  85.920	       101	    1200	    10.050
  85.940	       117	    1200	    10.817
  85.960	       111	    1200	    10.536
  85.980	       110	    1200	    10.488
  86.000	       120	    1200	    10.954
  86.020	       116	    1200	    10.770
  86.040	       102	    1200	    10.100
  86.060	        91	    1200	     9.539
  86.080	       120	    1200	    10.954
  86.100	        93	    1200	     9.644
  86.120	       100	    1200	    10.000
  86.140	       101	    1200	    10.050
  86.160	        88	    1200	     9.381
  86.180	        85	    1200	     9.220
  86.200	        87	    1200	     9.327
  86.220	        82	    1200	     9.055
  86.240	        70	    1200	     8.367
  86.260	        80	    1200	     8.944
  86.280	        66	    1200	     8.124
  86.300	        62	    1200	     7.874
  86.320	        62	    1200	     7.874
  86.340	        46	    1200	     6.782
  86.360	        49	    1200	     7.000
  86.380	        62	    1200	     7.874
  86.400	        58	    1200	     7.616
  86.420	        51	    1200	     7.141
  86.440	        34	    1200	     5.831
  86.460	        59	    1200	     7.681
  86.480	        48	    1200	     6.928
  86.500	        44	    1200	     6.633
  86.520	        28	    1200	     5.292
  86.540	        39	    1200	     6.245
  86.560	        31	    1200	     5.568
  86.580	        34	    1200	     5.831
  86.600	        35	    1200	     5.916
  86.620	        32	    1200	     5.657
  86.640	        18	    1200	     4.243
  86.660	        21	    1200	     4.583
  86.680	        20	    1200	     4.472
  86.700	        21	    1200	     4.583
  86.720	        19	    1200	     4.359
  86.740	        25	    1200	     5.000
  86.760	        21	    1200	     4.583
  86.780	        17	    1200	     4.123
  86.800	        20	    1200	     4.472
  86.820	        21	    1200	     4.583
  86.840	        22	    1200	     4.690
  86.860	        20	    1200	     4.472
  86.880	        20	    1200	     4.472
  86.900	        24	    1200	     4.899
  86.920	        19	    1200	     4.359
  86.940	         9	    1200	     3.000
  86.960	        17	    1200	     4.123
  86.980	        14	    1200	     3.742
  87.000	        16	    1200	     4.000
  87.020	        15	    1200	     3.873
  87.040	        15	    1200	     3.873
  87.060	        13	    1200	     3.606
  87.080	        18	    1200	     4.243
  87.100	        21	    1200	     4.583
  87.120	        16	    1200	     4.000
  87.140	        15	    1200	     3.873
  87.160	        16	    1200	     4.000
  87.180	        21	    1200	     4.583
  87.200	        20	    1200	     4.472
  87.220	        14	    1200	     3.742
  87.240	        14	    1200	     3.742
  87.260	        17	    1200	     4.123
  87.280	        21	    1200	     4.583
  87.300	        22	    1200	     4.690
  87.320	        18	    1200	     4.243
  87.340	        12	    1200	     3.464
  87.360	        16	    1200	     4.000
  87.380	        15	    1200	     3.873
  87.400	         9	    1200	     3.000
  87.420	        19	    1200	     4.359
  87.440	        15	    1200	     3.873
  87.460	        14	    1200	     3.742
  87.480	        17	    1200	     4.123
  87.500	        18	    1200	     4.243
  87.520	        13	    1200	     3.606
  87.540	        20	    1200	     4.472
  87.560	        13	    1200	     3.606
  87.580	        16	    1200	     4.000
  87.600	        18	    1200	     4.243
  87.620	        12	    1200	     3.464
  87.640	        17	    1200	     4.123
  87.660	        13	    1200	     3.606
  87.680	        10	    1200	     3.162
  87.700	        18	    1200	     4.243
  87.720	        14	    1200	     3.742
  87.740	        11	    1200	     3.317
  87.760	        17	    1200	     4.123
  87.780	        11	    1200	     3.317
  87.800	        21	    1200	     4.583
  87.820	        16	    1200	     4.000
  87.840	        21	    1200	     4.583
  87.860	        14	    1200	     3.742
  87.880	        11	    1200	     3.317
  87.900	        16	    1200	     4.000
  87.920	        15	    1200	     3.873
  87.940	        22	    1200	     4.690
  87.960	        14	    1200	     3.742
  87.980	        10	    1200	     3.162
  88.000	        10	    1200	     3.162
  88.020	        16	    1200	     4.000
  88.040	        13	    1200	     3.606
  88.060	        14	    1200	     3.742
  88.080	        13	    1200	     3.606
  88.100	        18	    1200	     4.243
  88.120	        18	    1200	     4.243
  88.140	        18	    1200	     4.243
  88.160	        17	    1200	     4.123
  88.180	         9	    1200	     3.000
  88.200	        15	    1200	     3.873
  88.220	        14	    1200	     3.742
  88.240	        17	    1200	     4.123
  88.260	        24	    1200	     4.899
  88.280	        21	    1200	     4.583
  88.300	        15	    1200	     3.873
  88.320	        14	    1200	     3.742
  88.340	         5	    1200	     2.236
  88.360	        10	    1200	     3.162
  88.380	        21	    1200	     4.583
  88.400	        15	    1200	     3.873
  88.420	        19	    1200	     4.359
  88.440	        11	    1200	     3.317
  88.460	        11	    1200	     3.317
  88.480	        10	    1200	     3.162
  88.500	        22	    1200	     4.690
  88.520	        17	    1200	     4.123
  88.540	        17	    1200	     4.123
  88.560	        13	    1200	     3.606
  88.580	        12	    1200	     3.464
  88.600	        14	    1200	     3.742
  88.620	        13	    1200	     3.606
  88.640	        14	    1200	     3.742
  88.660	        15	    1200	     3.873
  88.680	        22	    1200	     4.690
  88.700	        12	    1200	     3.464
  88.720	        15	    1200	     3.873
  88.740	        16	    1200	     4.000
  88.760	        11	    1200	     3.317
  88.780	        12	    1200	     3.464
  88.800	        13	    1200	     3.606
  88.820	        16	    1200	     4.000
  88.840	        14	    1200	     3.742
  88.860	        19	    1200	     4.359
  88.880	        17	    1200	     4.123
  88.900	         6	    1200	     2.449
  88.920	        19	    1200	     4.359
  88.940	        18	    1200	     4.243
  88.960	        16	    1200	     4.000
  88.980	        14	    1200	     3.742
  89.000	        17	    1200	     4.123
  89.020	        13	    1200	     3.606
  89.040	        18	    1200	     4.243
  89.060	        18	    1200	     4.243
  89.080	        16	    1200	     4.000
  89.100	         7	    1200	     2.646
  89.120	        12	    1200	     3.464
  89.140	        16	    1200	     4.000
  89.160	        18	    1200	     4.243
  89.180	        15	    1200	     3.873
  89.200	        11	    1200	     3.317
  89.220	        17	    1200	     4.123
  89.240	        19	    1200	     4.359
  89.260	        12	    1200	     3.464
  89.280	        16	    1200	     4.000
  89.300	        14	    1200	     3.742
  89.320	        11	    1200	     3.317
  89.340	        14	    1200	     3.742
  89.360	        14	    1200	     3.742
  89.380	        12	    1200	     3.464
  89.400	         8	    1200	     2.828
  89.420	        17	    1200	     4.123
  89.440	        16	    1200	     4.000
  89.460	        15	    1200	     3.873
  89.480	        17	    1200	     4.123
  89.500	        12	    1200	     3.464
  89.520	        14	    1200	     3.742
  89.540	        15	    1200	     3.873
  89.560	        19	    1200	     4.359
  89.580	        12	    1200	     3.464
  89.600	        17	    1200	     4.123
  89.620	        17	    1200	     4.123
  89.640	        17	    1200	     4.123
  89.660	        12	    1200	     3.464
  89.680	        17	    1200	     4.123
  89.700	        15	    1200	     3.873
  89.720	        16	    1200	     4.000
  89.740	        15	    1200	     3.873
  89.760	        23	    1200	     4.796
  89.780	        14	    1200	     3.742
  89.800	        18	    1200	     4.243
  89.820	        13	    1200	     3.606
  89.840	        15	    1200	     3.873
  89.860	        19	    1200	     4.359
  89.880	        15	    1200	     3.873
  89.900	        12	    1200	     3.464
  89.920	        17	    1200	     4.123
  89.940	        19	    1200	     4.359
  89.960	        16	    1200	     4.000
  89.980	        19	    1200	     4.359
  90.000	        19	    1200	     4.359
