         ID: 

    Comment: 

Scan Type: Normal
Start Angle: 15 deg.
Stop Angle: 90 deg.
Num Points: 3751
Step Size: 0.02 deg.
Datafile Res: 1600 
Scan Rate: 1.000000
Scan Mode: Continuous
Wavelength: 1.540562

Diffractometer Optics:
		Detector:
			 Type: Fixed Slits
			 X2 Configuration: No
		Tube: 
			 Type: Fixed Slits
			 X2 Configuration: No


Axis[0]
	 Selected   : no 
	 Iterative  : no 
	 Start Angle: 0.000000 
	 Stop Angle : 0.000000 
	 Step Size  : 0.000000 
	 Oscillating: no 

Axis[1]
	 Selected   : no 
	 Iterative  : no 
	 Start Angle: 0.000000 
	 Stop Angle : 0.000000 
	 Step Size  : 0.000000 
	 Oscillating: no 

Axis[2]
	 Selected   : no 
	 Iterative  : no 
	 Start Angle: 0.000000 
	 Stop Angle : 0.000000 
	 Step Size  : 0.000000 
	 Oscillating: no 

Axis[3]
	 Selected   : no 
	 Iterative  : no 
	 Start Angle: 0.000000 
	 Stop Angle : 0.000000 
	 Step Size  : 0.000000 
	 Oscillating: no 

Axis[4]
	 Selected   : no 
	 Iterative  : no 
	 Start Angle: 0.000000 
	 Stop Angle : 0.000000 
	 Step Size  : 0.000000 
	 Oscillating: no 

Axis[5]
	 Selected   : no 
	 Iterative  : no 
	 Start Angle: 0.000000 
	 Stop Angle : 0.000000 
	 Step Size  : 0.000000 
	 Oscillating: no 

Axis[6]
	 Selected   : no 
	 Iterative  : no 
	 Start Angle: 0.000000 
	 Stop Angle : 0.000000 
	 Step Size  : 0.000000 
	 Oscillating: no 

Axis[7]
	 Selected   : no 
	 Iterative  : no 
	 Start Angle: 0.000000 
	 Stop Angle : 0.000000 
	 Step Size  : 0.000000 
	 Oscillating: no 

Axis[8]
	 Selected   : no 
	 Iterative  : no 
	 Start Angle: 0.000000 
	 Stop Angle : 0.000000 
	 Step Size  : 0.000000 
	 Oscillating: no 

Axis[9]
	 Selected   : no 
	 Iterative  : no 
	 Start Angle: 0.000000 
	 Stop Angle : 0.000000 
	 Step Size  : 0.000000 
	 Oscillating: no 




	   Deg.    Counts 	   Time 	    ESD   

Range 0
  15.000	       116	    1200	    10.770
  15.020	       110	    1200	    10.488
  15.040	       111	    1200	    10.536
  15.060	        98	    1200	     9.899
  15.080	       124	    1200	    11.136
  15.100	       128	    1200	    11.314
  15.120	       105	    1200	    10.247
  15.140	       104	    1200	    10.198
  15.160	       105	    1200	    10.247
  15.180	       111	    1200	    10.536
  15.200	       114	    1200	    10.677
  15.220	       109	    1200	    10.440
  15.240	       125	    1200	    11.180
  15.260	        84	    1200	     9.165
  15.280	       108	    1200	    10.392
  15.300	       100	    1200	    10.000
  15.320	       111	    1200	    10.536
  15.340	       109	    1200	    10.440
  15.360	        99	    1200	     9.950
  15.380	       123	    1200	    11.091
  15.400	       105	    1200	    10.247
  15.420	       116	    1200	    10.770
  15.440	       112	    1200	    10.583
  15.460	       108	    1200	    10.392
  15.480	       107	    1200	    10.344
  15.500	       102	    1200	    10.100
  15.520	        94	    1200	     9.695
  15.540	       116	    1200	    10.770
  15.560	       112	    1200	    10.583
  15.580	       109	    1200	    10.440
  15.600	       109	    1200	    10.440
  15.620	       102	    1200	    10.100
  15.640	       111	    1200	    10.536
  15.660	       116	    1200	    10.770
  15.680	       116	    1200	    10.770
  15.700	       125	    1200	    11.180
  15.720	        94	    1200	     9.695
  15.740	       117	    1200	    10.817
  15.760	       124	    1200	    11.136
  15.780	       113	    1200	    10.630
  15.800	       101	    1200	    10.050
  15.820	       115	    1200	    10.724
  15.840	       109	    1200	    10.440
  15.860	        99	    1200	     9.950
  15.880	       112	    1200	    10.583
  15.900	       124	    1200	    11.136
  15.920	       115	    1200	    10.724
  15.940	       107	    1200	    10.344
  15.960	       120	    1200	    10.954
  15.980	       117	    1200	    10.817
  16.000	       104	    1200	    10.198
  16.020	       115	    1200	    10.724
  16.040	       101	    1200	    10.050
  16.060	        93	    1200	     9.644
  16.080	       106	    1200	    10.296
  16.100	       100	    1200	    10.000
  16.120	       109	    1200	    10.440
  16.140	       120	    1200	    10.954
  16.160	       115	    1200	    10.724
  16.180	       105	    1200	    10.247
  16.200	       105	    1200	    10.247
  16.220	       111	    1200	    10.536
  16.240	       136	    1200	    11.662
  16.260	       101	    1200	    10.050
  16.280	       104	    1200	    10.198
  16.300	       110	    1200	    10.488
  16.320	       116	    1200	    10.770
  16.340	       110	    1200	    10.488
  16.360	        98	    1200	     9.899
  16.380	       106	    1200	    10.296
  16.400	       112	    1200	    10.583
  16.420	       115	    1200	    10.724
  16.440	       117	    1200	    10.817
  16.460	        98	    1200	     9.899
  16.480	       105	    1200	    10.247
  16.500	       108	    1200	    10.392
  16.520	        86	    1200	     9.274
  16.540	        96	    1200	     9.798
  16.560	        99	    1200	     9.950
  16.580	       117	    1200	    10.817
  16.600	        96	    1200	     9.798
  16.620	       102	    1200	    10.100
  16.640	        91	    1200	     9.539
  16.660	       110	    1200	    10.488
  16.680	       107	    1200	    10.344
  16.700	       149	    1200	    12.207
  16.720	       107	    1200	    10.344
  16.740	        92	    1200	     9.592
  16.760	       103	    1200	    10.149
  16.780	       120	    1200	    10.954
  16.800	       104	    1200	    10.198
  16.820	       122	    1200	    11.045
  16.840	        99	    1200	     9.950
  16.860	       110	    1200	    10.488
  16.880	        98	    1200	     9.899
  16.900	       122	    1200	    11.045
  16.920	       115	    1200	    10.724
  16.940	       100	    1200	    10.000
  16.960	       109	    1200	    10.440
  16.980	        99	    1200	     9.950
  17.000	       104	    1200	    10.198
  17.020	       107	    1200	    10.344
  17.040	        99	    1200	     9.950
  17.060	       131	    1200	    11.446
  17.080	       102	    1200	    10.100
  17.100	        94	    1200	     9.695
  17.120	       107	    1200	    10.344
  17.140	       113	    1200	    10.630
  17.160	       112	    1200	    10.583
  17.180	       100	    1200	    10.000
  17.200	       124	    1200	    11.136
  17.220	       119	    1200	    10.909
  17.240	       101	    1200	    10.050
  17.260	       111	    1200	    10.536
  17.280	       107	    1200	    10.344
  17.300	       123	    1200	    11.091
  17.320	       118	    1200	    10.863
  17.340	       116	    1200	    10.770
  17.360	       117	    1200	    10.817
  17.380	       101	    1200	    10.050
  17.400	       120	    1200	    10.954
  17.420	       123	    1200	    11.091
  17.440	       102	    1200	    10.100
  17.460	        97	    1200	     9.849
  17.480	       124	    1200	    11.136
  17.500	        91	    1200	     9.539
  17.520	       112	    1200	    10.583
  17.540	       105	    1200	    10.247
  17.560	       106	    1200	    10.296
  17.580	        89	    1200	     9.434
  17.600	       112	    1200	    10.583
  17.620	       115	    1200	    10.724
  17.640	        91	    1200	     9.539
  17.660	       127	    1200	    11.269
  17.680	       119	    1200	    10.909
  17.700	       120	    1200	    10.954
  17.720	       113	    1200	    10.630
  17.740	       105	    1200	    10.247
  17.760	       109	    1200	    10.440
  17.780	       104	    1200	    10.198
  17.800	       105	    1200	    10.247
  17.820	       106	    1200	    10.296
  17.840	       126	    1200	    11.225
  17.860	        98	    1200	     9.899
  17.880	       123	    1200	    11.091
  17.900	       104	    1200	    10.198
  17.920	       106	    1200	    10.296
  17.940	       111	    1200	    10.536
  17.960	        98	    1200	     9.899
  17.980	        92	    1200	     9.592
  18.000	       104	    1200	    10.198
  18.020	       125	    1200	    11.180
  18.040	       112	    1200	    10.583
  18.060	       111	    1200	    10.536
  18.080	       107	    1200	    10.344
  18.100	       117	    1200	    10.817
  18.120	       104	    1200	    10.198
  18.140	       123	    1200	    11.091
  18.160	       126	    1200	    11.225
  18.180	       120	    1200	    10.954
  18.200	       129	    1200	    11.358
  18.220	       116	    1200	    10.770
  18.240	       108	    1200	    10.392
  18.260	       131	    1200	    11.446
  18.280	       127	    1200	    11.269
  18.300	       107	    1200	    10.344
  18.320	       109	    1200	    10.440
  18.340	       105	    1200	    10.247
  18.360	       115	    1200	    10.724
  18.380	       128	    1200	    11.314
  18.400	       110	    1200	    10.488
  18.420	        94	    1200	     9.695
  18.440	       118	    1200	    10.863
  18.460	       108	    1200	    10.392
  18.480	       128	    1200	    11.314
  18.500	       108	    1200	    10.392
  18.520	       117	    1200	    10.817
  18.540	        92	    1200	     9.592
  18.560	       123	    1200	    11.091
  18.580	       113	    1200	    10.630
  18.600	       113	    1200	    10.630
  18.620	       101	    1200	    10.050
  18.640	       112	    1200	    10.583
  18.660	       115	    1200	    10.724
  18.680	       114	    1200	    10.677
  18.700	        96	    1200	     9.798
  18.720	       109	    1200	    10.440
  18.740	        94	    1200	     9.695
  18.760	       110	    1200	    10.488
  18.780	       118	    1200	    10.863
  18.800	       106	    1200	    10.296
  18.820	        93	    1200	     9.644
  18.840	       108	    1200	    10.392
  18.860	       118	    1200	    10.863
  18.880	       109	    1200	    10.440
  18.900	       105	    1200	    10.247
  18.920	       138	    1200	    11.747
  18.940	       112	    1200	    10.583
  18.960	       102	    1200	    10.100
  18.980	       106	    1200	    10.296
  19.000	       112	    1200	    10.583
  19.020	        95	    1200	     9.747
  19.040	       115	    1200	    10.724
  19.060	       111	    1200	    10.536
  19.080	       119	    1200	    10.909
  19.100	       113	    1200	    10.630
  19.120	       116	    1200	    10.770
  19.140	       114	    1200	    10.677
  19.160	       109	    1200	    10.440
  19.180	       123	    1200	    11.091
  19.200	       111	    1200	    10.536
  19.220	       110	    1200	    10.488
  19.240	       114	    1200	    10.677
  19.260	       100	    1200	    10.000
  19.280	       112	    1200	    10.583
  19.300	       106	    1200	    10.296
  19.320	       115	    1200	    10.724
  19.340	       111	    1200	    10.536
  19.360	        98	    1200	     9.899
  19.380	       104	    1200	    10.198
  19.400	       105	    1200	    10.247
  19.420	       129	    1200	    11.358
  19.440	       115	    1200	    10.724
  19.460	        94	    1200	     9.695
  19.480	       112	    1200	    10.583
  19.500	       101	    1200	    10.050
  19.520	       105	    1200	    10.247
  19.540	       106	    1200	    10.296
  19.560	       102	    1200	    10.100
  19.580	       107	    1200	    10.344
  19.600	       107	    1200	    10.344
  19.620	        93	    1200	     9.644
  19.640	        93	    1200	     9.644
  19.660	       113	    1200	    10.630
  19.680	       104	    1200	    10.198
  19.700	       118	    1200	    10.863
  19.720	       114	    1200	    10.677
  19.740	       123	    1200	    11.091
  19.760	       100	    1200	    10.000
  19.780	        88	    1200	     9.381
  19.800	       115	    1200	    10.724
  19.820	       123	    1200	    11.091
  19.840	       104	    1200	    10.198
  19.860	       121	    1200	    11.000
  19.880	       119	    1200	    10.909
  19.900	       115	    1200	    10.724
  19.920	       131	    1200	    11.446
  19.940	        92	    1200	     9.592
  19.960	       114	    1200	    10.677
  19.980	       123	    1200	    11.091
  20.000	       109	    1200	    10.440
  20.020	       102	    1200	    10.100
  20.040	       105	    1200	    10.247
  20.060	       108	    1200	    10.392
  20.080	       110	    1200	    10.488
  20.100	       100	    1200	    10.000
  20.120	       102	    1200	    10.100
  20.140	       110	    1200	    10.488
  20.160	        99	    1200	     9.950
  20.180	       101	    1200	    10.050
  20.200	       108	    1200	    10.392
  20.220	       114	    1200	    10.677
  20.240	       101	    1200	    10.050
  20.260	       100	    1200	    10.000
  20.280	       113	    1200	    10.630
  20.300	       120	    1200	    10.954
  20.320	       116	    1200	    10.770
  20.340	       101	    1200	    10.050
  20.360	       103	    1200	    10.149
  20.380	       114	    1200	    10.677
  20.400	       108	    1200	    10.392
  20.420	       105	    1200	    10.247
  20.440	        94	    1200	     9.695
  20.460	       115	    1200	    10.724
  20.480	       106	    1200	    10.296
  20.500	        89	    1200	     9.434
  20.520	        97	    1200	     9.849
  20.540	        95	    1200	     9.747
  20.560	       122	    1200	    11.045
  20.580	       111	    1200	    10.536
  20.600	        95	    1200	     9.747
  20.620	       114	    1200	    10.677
  20.640	       110	    1200	    10.488
  20.660	        95	    1200	     9.747
  20.680	        99	    1200	     9.950
  20.700	        86	    1200	     9.274
  20.720	       111	    1200	    10.536
  20.740	       107	    1200	    10.344
  20.760	        99	    1200	     9.950
  20.780	       129	    1200	    11.358
  20.800	       103	    1200	    10.149
  20.820	        95	    1200	     9.747
  20.840	       124	    1200	    11.136
  20.860	       111	    1200	    10.536
  20.880	       105	    1200	    10.247
  20.900	        95	    1200	     9.747
  20.920	        95	    1200	     9.747
  20.940	       114	    1200	    10.677
  20.960	        94	    1200	     9.695
  20.980	        98	    1200	     9.899
  21.000	        93	    1200	     9.644
  21.020	       100	    1200	    10.000
  21.040	       126	    1200	    11.225
  21.060	       101	    1200	    10.050
  21.080	        98	    1200	     9.899
  21.100	        93	    1200	     9.644
  21.120	       111	    1200	    10.536
  21.140	       106	    1200	    10.296
  21.160	       102	    1200	    10.100
  21.180	        97	    1200	     9.849
  21.200	        97	    1200	     9.849
  21.220	       111	    1200	    10.536
  21.240	        94	    1200	     9.695
  21.260	       107	    1200	    10.344
  21.280	       113	    1200	    10.630
  21.300	       110	    1200	    10.488
  21.320	       113	    1200	    10.630
  21.340	       101	    1200	    10.050
  21.360	       104	    1200	    10.198
  21.380	       100	    1200	    10.000
  21.400	       119	    1200	    10.909
  21.420	        99	    1200	     9.950
  21.440	       111	    1200	    10.536
  21.460	       112	    1200	    10.583
  21.480	       105	    1200	    10.247
  21.500	       104	    1200	    10.198
  21.520	       113	    1200	    10.630
  21.540	       103	    1200	    10.149
  21.560	       109	    1200	    10.440
  21.580	        94	    1200	     9.695
  21.600	       113	    1200	    10.630
  21.620	       118	    1200	    10.863
  21.640	       117	    1200	    10.817
  21.660	       104	    1200	    10.198
  21.680	        96	    1200	     9.798
  21.700	       109	    1200	    10.440
  21.720	       102	    1200	    10.100
  21.740	        91	    1200	     9.539
  21.760	       114	    1200	    10.677
  21.780	       100	    1200	    10.000
  21.800	       108	    1200	    10.392
  21.820	       123	    1200	    11.091
  21.840	       111	    1200	    10.536
  21.860	       106	    1200	    10.296
  21.880	        98	    1200	     9.899
  21.900	       113	    1200	    10.630
  21.920	       106	    1200	    10.296
  21.940	       105	    1200	    10.247
  21.960	        86	    1200	     9.274
  21.980	       107	    1200	    10.344
  22.000	       106	    1200	    10.296
  22.020	        98	    1200	     9.899
  22.040	        89	    1200	     9.434
  22.060	        94	    1200	     9.695
  22.080	       113	    1200	    10.630
  22.100	       117	    1200	    10.817
  22.120	        95	    1200	     9.747
  22.140	       106	    1200	    10.296
  22.160	        92	    1200	     9.592
  22.180	       115	    1200	    10.724
  22.200	       115	    1200	    10.724
  22.220	       119	    1200	    10.909
  22.240	        94	    1200	     9.695
  22.260	       122	    1200	    11.045
  22.280	       101	    1200	    10.050
  22.300	       103	    1200	    10.149
  22.320	        98	    1200	     9.899
  22.340	       102	    1200	    10.100
  22.360	        84	    1200	     9.165
  22.380	       102	    1200	    10.100
  22.400	       101	    1200	    10.050
  22.420	       121	    1200	    11.000
  22.440	       110	    1200	    10.488
  22.460	       115	    1200	    10.724
  22.480	       106	    1200	    10.296
  22.500	       113	    1200	    10.630
  22.520	       109	    1200	    10.440
  22.540	       121	    1200	    11.000
  22.560	       100	    1200	    10.000
  22.580	       111	    1200	    10.536
  22.600	       128	    1200	    11.314
  22.620	       111	    1200	    10.536
  22.640	       133	    1200	    11.533
  22.660	       125	    1200	    11.180
  22.680	       136	    1200	    11.662
  22.700	       136	    1200	    11.662
  22.720	       104	    1200	    10.198
  22.740	       113	    1200	    10.630
  22.760	       114	    1200	    10.677
  22.780	       122	    1200	    11.045
  22.800	       145	    1200	    12.042
  22.820	       131	    1200	    11.446
  22.840	       125	    1200	    11.180
  22.860	       109	    1200	    10.440
  22.880	       135	    1200	    11.619
  22.900	       135	    1200	    11.619
  22.920	       114	    1200	    10.677
  22.940	       124	    1200	    11.136
  22.960	       119	    1200	    10.909
  22.980	       122	    1200	    11.045
  23.000	       137	    1200	    11.705
  23.020	       103	    1200	    10.149
  23.040	       112	    1200	    10.583
  23.060	       113	    1200	    10.630
  23.080	       110	    1200	    10.488
  23.100	       121	    1200	    11.000
  23.120	       113	    1200	    10.630
  23.140	        95	    1200	     9.747
  23.160	       111	    1200	    10.536
  23.180	       108	    1200	    10.392
  23.200	       123	    1200	    11.091
  23.220	       111	    1200	    10.536
  23.240	        98	    1200	     9.899
  23.260	       112	    1200	    10.583
  23.280	       116	    1200	    10.770
  23.300	       104	    1200	    10.198
  23.320	       111	    1200	    10.536
  23.340	       105	    1200	    10.247
  23.360	        95	    1200	     9.747
  23.380	       105	    1200	    10.247
  23.400	        91	    1200	     9.539
  23.420	        83	    1200	     9.110
  23.440	        95	    1200	     9.747
  23.460	        90	    1200	     9.487
  23.480	       109	    1200	    10.440
  23.500	       114	    1200	    10.677
  23.520	       101	    1200	    10.050
  23.540	        93	    1200	     9.644
  23.560	        82	    1200	     9.055
  23.580	        95	    1200	     9.747
  23.600	        86	    1200	     9.274
  23.620	        94	    1200	     9.695
  23.640	       113	    1200	    10.630
  23.660	       103	    1200	    10.149
  23.680	        99	    1200	     9.950
  23.700	        99	    1200	     9.950
  23.720	        97	    1200	     9.849
  23.740	        97	    1200	     9.849
  23.760	        98	    1200	     9.899
  23.780	       102	    1200	    10.100
  23.800	       114	    1200	    10.677
  23.820	        86	    1200	     9.274
  23.840	        85	    1200	     9.220
  23.860	        93	    1200	     9.644
  23.880	        89	    1200	     9.434
  23.900	       107	    1200	    10.344
  23.920	       110	    1200	    10.488
  23.940	       103	    1200	    10.149
  23.960	        91	    1200	     9.539
  23.980	        92	    1200	     9.592
  24.000	        96	    1200	     9.798
  24.020	       107	    1200	    10.344
  24.040	        89	    1200	     9.434
  24.060	        87	    1200	     9.327
  24.080	       109	    1200	    10.440
  24.100	       102	    1200	    10.100
  24.120	        93	    1200	     9.644
  24.140	        85	    1200	     9.220
  24.160	       104	    1200	    10.198
  24.180	        99	    1200	     9.950
  24.200	        99	    1200	     9.950
  24.220	        91	    1200	     9.539
  24.240	        96	    1200	     9.798
  24.260	       105	    1200	    10.247
  24.280	       108	    1200	    10.392
  24.300	        81	    1200	     9.000
  24.320	        89	    1200	     9.434
  24.340	       113	    1200	    10.630
  24.360	       106	    1200	    10.296
  24.380	        84	    1200	     9.165
  24.400	        96	    1200	     9.798
  24.420	       111	    1200	    10.536
  24.440	        99	    1200	     9.950
  24.460	       103	    1200	    10.149
  24.480	        91	    1200	     9.539
  24.500	       116	    1200	    10.770
  24.520	       125	    1200	    11.180
  24.540	       105	    1200	    10.247
  24.560	       101	    1200	    10.050
  24.580	       106	    1200	    10.296
  24.600	       117	    1200	    10.817
  24.620	       115	    1200	    10.724
  24.640	        83	    1200	     9.110
  24.660	       109	    1200	    10.440
  24.680	        90	    1200	     9.487
  24.700	        95	    1200	     9.747
  24.720	       108	    1200	    10.392
  24.740	        91	    1200	     9.539
  24.760	        93	    1200	     9.644
  24.780	        93	    1200	     9.644
  24.800	       100	    1200	    10.000
  24.820	       106	    1200	    10.296
  24.840	        95	    1200	     9.747
  24.860	       104	    1200	    10.198
  24.880	       118	    1200	    10.863
  24.900	        95	    1200	     9.747
  24.920	       100	    1200	    10.000
  24.940	        95	    1200	     9.747
  24.960	        92	    1200	     9.592
  24.980	       110	    1200	    10.488
  25.000	        99	    1200	     9.950
  25.020	       107	    1200	    10.344
  25.040	        84	    1200	     9.165
  25.060	        76	    1200	     8.718
  25.080	       101	    1200	    10.050
  25.100	        97	    1200	     9.849
  25.120	        87	    1200	     9.327
  25.140	        82	    1200	     9.055
  25.160	       123	    1200	    11.091
  25.180	       105	    1200	    10.247
  25.200	       105	    1200	    10.247
  25.220	       114	    1200	    10.677
  25.240	       107	    1200	    10.344
  25.260	        72	    1200	     8.485
  25.280	       111	    1200	    10.536
  25.300	        97	    1200	     9.849
  25.320	        96	    1200	     9.798
  25.340	       102	    1200	    10.100
  25.360	       104	    1200	    10.198
  25.380	        85	    1200	     9.220
  25.400	        83	    1200	     9.110
  25.420	        72	    1200	     8.485
  25.440	        95	    1200	     9.747
  25.460	        92	    1200	     9.592
  25.480	       104	    1200	    10.198
  25.500	        96	    1200	     9.798
  25.520	        95	    1200	     9.747
  25.540	       100	    1200	    10.000
  25.560	        96	    1200	     9.798
  25.580	       116	    1200	    10.770
  25.600	       100	    1200	    10.000
  25.620	       101	    1200	    10.050
  25.640	        91	    1200	     9.539
  25.660	        85	    1200	     9.220
  25.680	        82	    1200	     9.055
  25.700	       100	    1200	    10.000
  25.720	        95	    1200	     9.747
  25.740	       111	    1200	    10.536
  25.760	        97	    1200	     9.849
  25.780	       103	    1200	    10.149
  25.800	        87	    1200	     9.327
  25.820	        96	    1200	     9.798
  25.840	        98	    1200	     9.899
  25.860	       101	    1200	    10.050
  25.880	       106	    1200	    10.296
  25.900	       102	    1200	    10.100
  25.920	        90	    1200	     9.487
  25.940	        96	    1200	     9.798
  25.960	        85	    1200	     9.220
  25.980	       101	    1200	    10.050
  26.000	        89	    1200	     9.434
  26.020	        66	    1200	     8.124
  26.040	        85	    1200	     9.220
  26.060	       125	    1200	    11.180
  26.080	        83	    1200	     9.110
  26.100	        91	    1200	     9.539
  26.120	        86	    1200	     9.274
  26.140	        94	    1200	     9.695
  26.160	       100	    1200	    10.000
  26.180	        94	    1200	     9.695
  26.200	       117	    1200	    10.817
  26.220	        87	    1200	     9.327
  26.240	        67	    1200	     8.185
  26.260	        89	    1200	     9.434
  26.280	       101	    1200	    10.050
  26.300	       101	    1200	    10.050
  26.320	        88	    1200	     9.381
  26.340	        84	    1200	     9.165
  26.360	        86	    1200	     9.274
  26.380	        82	    1200	     9.055
  26.400	        95	    1200	     9.747
  26.420	        81	    1200	     9.000
  26.440	        93	    1200	     9.644
  26.460	        99	    1200	     9.950
  26.480	        93	    1200	     9.644
  26.500	        96	    1200	     9.798
  26.520	       102	    1200	    10.100
  26.540	        83	    1200	     9.110
  26.560	        88	    1200	     9.381
  26.580	       100	    1200	    10.000
  26.600	       121	    1200	    11.000
  26.620	        75	    1200	     8.660
  26.640	        75	    1200	     8.660
  26.660	       103	    1200	    10.149
  26.680	        68	    1200	     8.246
  26.700	        91	    1200	     9.539
  26.720	        82	    1200	     9.055
  26.740	        88	    1200	     9.381
  26.760	        74	    1200	     8.602
  26.780	        79	    1200	     8.888
  26.800	        67	    1200	     8.185
  26.820	        85	    1200	     9.220
  26.840	        74	    1200	     8.602
  26.860	        93	    1200	     9.644
  26.880	        56	    1200	     7.483
  26.900	        90	    1200	     9.487
  26.920	        81	    1200	     9.000
  26.940	        87	    1200	     9.327
  26.960	        89	    1200	     9.434
  26.980	        66	    1200	     8.124
  27.000	        70	    1200	     8.367
  27.020	        85	    1200	     9.220
  27.040	        69	    1200	     8.307
  27.060	        85	    1200	     9.220
  27.080	        80	    1200	     8.944
  27.100	        72	    1200	     8.485
  27.120	        91	    1200	     9.539
  27.140	        82	    1200	     9.055
  27.160	        92	    1200	     9.592
  27.180	        80	    1200	     8.944
  27.200	        81	    1200	     9.000
  27.220	        86	    1200	     9.274
  27.240	        87	    1200	     9.327
  27.260	        84	    1200	     9.165
  27.280	        81	    1200	     9.000
  27.300	        69	    1200	     8.307
  27.320	        76	    1200	     8.718
  27.340	        72	    1200	     8.485
  27.360	        74	    1200	     8.602
  27.380	        64	    1200	     8.000
  27.400	        80	    1200	     8.944
  27.420	        79	    1200	     8.888
  27.440	        89	    1200	     9.434
  27.460	        86	    1200	     9.274
  27.480	        75	    1200	     8.660
  27.500	        97	    1200	     9.849
  27.520	        84	    1200	     9.165
  27.540	        78	    1200	     8.832
  27.560	        82	    1200	     9.055
  27.580	        94	    1200	     9.695
  27.600	        87	    1200	     9.327
  27.620	        61	    1200	     7.810
  27.640	        76	    1200	     8.718
  27.660	        87	    1200	     9.327
  27.680	        85	    1200	     9.220
  27.700	        74	    1200	     8.602
  27.720	        83	    1200	     9.110
  27.740	        60	    1200	     7.746
  27.760	        72	    1200	     8.485
  27.780	        72	    1200	     8.485
  27.800	        84	    1200	     9.165
  27.820	        78	    1200	     8.832
  27.840	        71	    1200	     8.426
  27.860	        79	    1200	     8.888
  27.880	        91	    1200	     9.539
  27.900	        84	    1200	     9.165
  27.920	        73	    1200	     8.544
  27.940	        68	    1200	     8.246
  27.960	        68	    1200	     8.246
  27.980	        81	    1200	     9.000
  28.000	        72	    1200	     8.485
  28.020	        83	    1200	     9.110
  28.040	        66	    1200	     8.124
  28.060	        67	    1200	     8.185
  28.080	        68	    1200	     8.246
  28.100	        75	    1200	     8.660
  28.120	        77	    1200	     8.775
  28.140	        71	    1200	     8.426
  28.160	        83	    1200	     9.110
  28.180	        69	    1200	     8.307
  28.200	        67	    1200	     8.185
  28.220	        78	    1200	     8.832
  28.240	        80	    1200	     8.944
  28.260	        68	    1200	     8.246
  28.280	        73	    1200	     8.544
  28.300	        74	    1200	     8.602
  28.320	        75	    1200	     8.660
  28.340	        76	    1200	     8.718
  28.360	        87	    1200	     9.327
  28.380	        72	    1200	     8.485
  28.400	        71	    1200	     8.426
  28.420	        82	    1200	     9.055
  28.440	        68	    1200	     8.246
  28.460	        72	    1200	     8.485
  28.480	        83	    1200	     9.110
  28.500	        80	    1200	     8.944
  28.520	        80	    1200	     8.944
  28.540	        79	    1200	     8.888
  28.560	        79	    1200	     8.888
  28.580	        78	    1200	     8.832
  28.600	        70	    1200	     8.367
  28.620	        77	    1200	     8.775
  28.640	        79	    1200	     8.888
  28.660	        65	    1200	     8.062
  28.680	        55	    1200	     7.416
  28.700	        80	    1200	     8.944
  28.720	        73	    1200	     8.544
  28.740	        85	    1200	     9.220
  28.760	        63	    1200	     7.937
  28.780	        76	    1200	     8.718
  28.800	        66	    1200	     8.124
  28.820	        65	    1200	     8.062
  28.840	        67	    1200	     8.185
  28.860	        83	    1200	     9.110
  28.880	        63	    1200	     7.937
  28.900	        81	    1200	     9.000
  28.920	        67	    1200	     8.185
  28.940	        55	    1200	     7.416
  28.960	        69	    1200	     8.307
  28.980	        85	    1200	     9.220
  29.000	        68	    1200	     8.246
  29.020	        63	    1200	     7.937
  29.040	        64	    1200	     8.000
  29.060	        83	    1200	     9.110
  29.080	        68	    1200	     8.246
  29.100	        89	    1200	     9.434
  29.120	        75	    1200	     8.660
  29.140	        75	    1200	     8.660
  29.160	        80	    1200	     8.944
  29.180	        88	    1200	     9.381
  29.200	        60	    1200	     7.746
  29.220	        72	    1200	     8.485
  29.240	        69	    1200	     8.307
  29.260	        66	    1200	     8.124
  29.280	        74	    1200	     8.602
  29.300	        68	    1200	     8.246
  29.320	        67	    1200	     8.185
  29.340	        65	    1200	     8.062
  29.360	        64	    1200	     8.000
  29.380	        68	    1200	     8.246
  29.400	        58	    1200	     7.616
  29.420	        49	    1200	     7.000
  29.440	        72	    1200	     8.485
  29.460	        74	    1200	     8.602
  29.480	        64	    1200	     8.000
  29.500	        69	    1200	     8.307
  29.520	        68	    1200	     8.246
  29.540	        52	    1200	     7.211
  29.560	        79	    1200	     8.888
  29.580	        67	    1200	     8.185
  29.600	        63	    1200	     7.937
  29.620	        64	    1200	     8.000
  29.640	        69	    1200	     8.307
  29.660	        67	    1200	     8.185
  29.680	        77	    1200	     8.775
  29.700	        55	    1200	     7.416
  29.720	        44	    1200	     6.633
  29.740	        73	    1200	     8.544
  29.760	        60	    1200	     7.746
  29.780	        52	    1200	     7.211
  29.800	        71	    1200	     8.426
  29.820	        71	    1200	     8.426
  29.840	        83	    1200	     9.110
  29.860	        61	    1200	     7.810
  29.880	        61	    1200	     7.810
  29.900	        57	    1200	     7.550
  29.920	        56	    1200	     7.483
  29.940	        51	    1200	     7.141
  29.960	        64	    1200	     8.000
  29.980	        47	    1200	     6.856
  30.000	        54	    1200	     7.348
  30.020	        69	    1200	     8.307
  30.040	        63	    1200	     7.937
  30.060	        64	    1200	     8.000
  30.080	        65	    1200	     8.062
  30.100	        60	    1200	     7.746
  30.120	        78	    1200	     8.832
  30.140	        66	    1200	     8.124
  30.160	        78	    1200	     8.832
  30.180	        62	    1200	     7.874
  30.200	        72	    1200	     8.485
  30.220	        66	    1200	     8.124
  30.240	        68	    1200	     8.246
  30.260	        71	    1200	     8.426
  30.280	        74	    1200	     8.602
  30.300	        67	    1200	     8.185
  30.320	        58	    1200	     7.616
  30.340	        75	    1200	     8.660
  30.360	        73	    1200	     8.544
  30.380	        72	    1200	     8.485
  30.400	        69	    1200	     8.307
  30.420	        45	    1200	     6.708
  30.440	        65	    1200	     8.062
  30.460	        53	    1200	     7.280
  30.480	        53	    1200	     7.280
  30.500	        47	    1200	     6.856
  30.520	        67	    1200	     8.185
  30.540	        71	    1200	     8.426
  30.560	        80	    1200	     8.944
  30.580	        84	    1200	     9.165
  30.600	        57	    1200	     7.550
  30.620	        56	    1200	     7.483
  30.640	        77	    1200	     8.775
  30.660	        71	    1200	     8.426
  30.680	        62	    1200	     7.874
  30.700	        68	    1200	     8.246
  30.720	        58	    1200	     7.616
  30.740	        66	    1200	     8.124
  30.760	        69	    1200	     8.307
  30.780	        66	    1200	     8.124
  30.800	        64	    1200	     8.000
  30.820	        86	    1200	     9.274
  30.840	        71	    1200	     8.426
  30.860	        81	    1200	     9.000
  30.880	        84	    1200	     9.165
  30.900	        73	    1200	     8.544
  30.920	        62	    1200	     7.874
  30.940	        62	    1200	     7.874
  30.960	        77	    1200	     8.775
  30.980	        88	    1200	     9.381
  31.000	        60	    1200	     7.746
  31.020	        79	    1200	     8.888
  31.040	        69	    1200	     8.307
  31.060	        67	    1200	     8.185
  31.080	        83	    1200	     9.110
  31.100	        73	    1200	     8.544
  31.120	        81	    1200	     9.000
  31.140	        77	    1200	     8.775
  31.160	        86	    1200	     9.274
  31.180	        82	    1200	     9.055
  31.200	        93	    1200	     9.644
  31.220	        95	    1200	     9.747
  31.240	       100	    1200	    10.000
  31.260	        66	    1200	     8.124
  31.280	       132	    1200	    11.489
  31.300	        99	    1200	     9.950
  31.320	       114	    1200	    10.677
  31.340	       146	    1200	    12.083
  31.360	       155	    1200	    12.450
  31.380	       151	    1200	    12.288
  31.400	       164	    1200	    12.806
  31.420	       193	    1200	    13.892
  31.440	       247	    1200	    15.716
  31.460	       263	    1200	    16.217
  31.480	       273	    1200	    16.523
  31.500	       336	    1200	    18.330
  31.520	       350	    1200	    18.708
  31.540	       410	    1200	    20.248
  31.560	       445	    1200	    21.095
  31.580	       476	    1200	    21.817
  31.600	       534	    1200	    23.108
  31.620	       569	    1200	    23.854
  31.640	       652	    1200	    25.534
  31.660	       690	    1200	    26.268
  31.680	       769	    1200	    27.731
  31.700	       762	    1200	    27.604
  31.720	       717	    1200	    26.777
  31.740	       752	    1200	    27.423
  31.760	       668	    1200	    25.846
  31.780	       591	    1200	    24.310
  31.800	       580	    1200	    24.083
  31.820	       544	    1200	    23.324
  31.840	       443	    1200	    21.048
  31.860	       407	    1200	    20.174
  31.880	       362	    1200	    19.026
  31.900	       288	    1200	    16.971
  31.920	       313	    1200	    17.692
  31.940	       261	    1200	    16.155
  31.960	       257	    1200	    16.031
  31.980	       269	    1200	    16.401
  32.000	       288	    1200	    16.971
  32.020	       251	    1200	    15.843
  32.040	       289	    1200	    17.000
  32.060	       341	    1200	    18.466
  32.080	       421	    1200	    20.518
  32.100	       492	    1200	    22.181
  32.120	       591	    1200	    24.310
  32.140	       697	    1200	    26.401
  32.160	       807	    1200	    28.408
  32.180	      1021	    1200	    31.953
  32.200	      1177	    1200	    34.307
  32.220	      1303	    1200	    36.097
  32.240	      1452	    1200	    38.105
  32.260	      1498	    1200	    38.704
  32.280	      1561	    1200	    39.509
  32.300	      1575	    1200	    39.686
  32.320	      1442	    1200	    37.974
  32.340	      1352	    1200	    36.770
  32.360	      1234	    1200	    35.128
  32.380	      1009	    1200	    31.765
  32.400	       918	    1200	    30.299
  32.420	       768	    1200	    27.713
  32.440	       599	    1200	    24.474
  32.460	       467	    1200	    21.610
  32.480	       335	    1200	    18.303
  32.500	       298	    1200	    17.263
  32.520	       232	    1200	    15.232
  32.540	       196	    1200	    14.000
  32.560	       171	    1200	    13.077
  32.580	       166	    1200	    12.884
  32.600	       158	    1200	    12.570
  32.620	       157	    1200	    12.530
  32.640	       132	    1200	    11.489
  32.660	       103	    1200	    10.149
  32.680	       120	    1200	    10.954
  32.700	        95	    1200	     9.747
  32.720	        94	    1200	     9.695
  32.740	        93	    1200	     9.644
  32.760	       101	    1200	    10.050
  32.780	       108	    1200	    10.392
  32.800	        87	    1200	     9.327
  32.820	        89	    1200	     9.434
  32.840	        76	    1200	     8.718
  32.860	        86	    1200	     9.274
  32.880	        74	    1200	     8.602
  32.900	        89	    1200	     9.434
  32.920	        72	    1200	     8.485
  32.940	        77	    1200	     8.775
  32.960	        77	    1200	     8.775
  32.980	        72	    1200	     8.485
  33.000	        58	    1200	     7.616
  33.020	        69	    1200	     8.307
  33.040	        80	    1200	     8.944
  33.060	        76	    1200	     8.718
  33.080	        74	    1200	     8.602
  33.100	        84	    1200	     9.165
  33.120	        63	    1200	     7.937
  33.140	        73	    1200	     8.544
  33.160	        77	    1200	     8.775
  33.180	        69	    1200	     8.307
  33.200	        75	    1200	     8.660
  33.220	        67	    1200	     8.185
  33.240	        55	    1200	     7.416
  33.260	        73	    1200	     8.544
  33.280	        60	    1200	     7.746
  33.300	        56	    1200	     7.483
  33.320	        50	    1200	     7.071
  33.340	        56	    1200	     7.483
  33.360	        48	    1200	     6.928
  33.380	        62	    1200	     7.874
  33.400	        62	    1200	     7.874
  33.420	        59	    1200	     7.681
  33.440	        63	    1200	     7.937
  33.460	        59	    1200	     7.681
  33.480	        60	    1200	     7.746
  33.500	        49	    1200	     7.000
  33.520	        58	    1200	     7.616
  33.540	        53	    1200	     7.280
  33.560	        38	    1200	     6.164
  33.580	        53	    1200	     7.280
  33.600	        49	    1200	     7.000
  33.620	        53	    1200	     7.280
  33.640	        51	    1200	     7.141
  33.660	        51	    1200	     7.141
  33.680	        58	    1200	     7.616
  33.700	        52	    1200	     7.211
  33.720	        55	    1200	     7.416
  33.740	        57	    1200	     7.550
  33.760	        50	    1200	     7.071
  33.780	        61	    1200	     7.810
  33.800	        53	    1200	     7.280
  33.820	        56	    1200	     7.483
  33.840	        32	    1200	     5.657
  33.860	        57	    1200	     7.550
  33.880	        50	    1200	     7.071
  33.900	        59	    1200	     7.681
  33.920	        54	    1200	     7.348
  33.940	        46	    1200	     6.782
  33.960	        44	    1200	     6.633
  33.980	        48	    1200	     6.928
  34.000	        47	    1200	     6.856
  34.020	        40	    1200	     6.325
  34.040	        47	    1200	     6.856
  34.060	        49	    1200	     7.000
  34.080	        45	    1200	     6.708
  34.100	        45	    1200	     6.708
  34.120	        47	    1200	     6.856
  34.140	        47	    1200	     6.856
  34.160	        57	    1200	     7.550
  34.180	        44	    1200	     6.633
  34.200	        44	    1200	     6.633
  34.220	        48	    1200	     6.928
  34.240	        50	    1200	     7.071
  34.260	        49	    1200	     7.000
  34.280	        42	    1200	     6.481
  34.300	        46	    1200	     6.782
  34.320	        40	    1200	     6.325
  34.340	        46	    1200	     6.782
  34.360	        43	    1200	     6.557
  34.380	        46	    1200	     6.782
  34.400	        52	    1200	     7.211
  34.420	        46	    1200	     6.782
  34.440	        54	    1200	     7.348
  34.460	        54	    1200	     7.348
  34.480	        46	    1200	     6.782
  34.500	        40	    1200	     6.325
  34.520	        41	    1200	     6.403
  34.540	        40	    1200	     6.325
  34.560	        43	    1200	     6.557
  34.580	        47	    1200	     6.856
  34.600	        55	    1200	     7.416
  34.620	        52	    1200	     7.211
  34.640	        45	    1200	     6.708
  34.660	        43	    1200	     6.557
  34.680	        45	    1200	     6.708
  34.700	        38	    1200	     6.164
  34.720	        41	    1200	     6.403
  34.740	        35	    1200	     5.916
  34.760	        32	    1200	     5.657
  34.780	        42	    1200	     6.481
  34.800	        41	    1200	     6.403
  34.820	        44	    1200	     6.633
  34.840	        45	    1200	     6.708
  34.860	        31	    1200	     5.568
  34.880	        41	    1200	     6.403
  34.900	        36	    1200	     6.000
  34.920	        38	    1200	     6.164
  34.940	        43	    1200	     6.557
  34.960	        42	    1200	     6.481
  34.980	        30	    1200	     5.477
  35.000	        41	    1200	     6.403
  35.020	        52	    1200	     7.211
  35.040	        41	    1200	     6.403
  35.060	        37	    1200	     6.083
  35.080	        38	    1200	     6.164
  35.100	        39	    1200	     6.245
  35.120	        25	    1200	     5.000
  35.140	        37	    1200	     6.083
  35.160	        36	    1200	     6.000
  35.180	        45	    1200	     6.708
  35.200	        36	    1200	     6.000
  35.220	        38	    1200	     6.164
  35.240	        35	    1200	     5.916
  35.260	        41	    1200	     6.403
  35.280	        39	    1200	     6.245
  35.300	        40	    1200	     6.325
  35.320	        49	    1200	     7.000
  35.340	        41	    1200	     6.403
  35.360	        36	    1200	     6.000
  35.380	        39	    1200	     6.245
  35.400	        32	    1200	     5.657
  35.420	        33	    1200	     5.745
  35.440	        39	    1200	     6.245
  35.460	        31	    1200	     5.568
  35.480	        41	    1200	     6.403
  35.500	        45	    1200	     6.708
  35.520	        34	    1200	     5.831
  35.540	        35	    1200	     5.916
  35.560	        36	    1200	     6.000
  35.580	        37	    1200	     6.083
  35.600	        43	    1200	     6.557
  35.620	        38	    1200	     6.164
  35.640	        35	    1200	     5.916
  35.660	        30	    1200	     5.477
  35.680	        29	    1200	     5.385
  35.700	        40	    1200	     6.325
  35.720	        22	    1200	     4.690
  35.740	        39	    1200	     6.245
  35.760	        44	    1200	     6.633
  35.780	        27	    1200	     5.196
  35.800	        28	    1200	     5.292
  35.820	        31	    1200	     5.568
  35.840	        36	    1200	     6.000
  35.860	        32	    1200	     5.657
  35.880	        31	    1200	     5.568
  35.900	        37	    1200	     6.083
  35.920	        47	    1200	     6.856
  35.940	        42	    1200	     6.481
  35.960	        41	    1200	     6.403
  35.980	        44	    1200	     6.633
  36.000	        32	    1200	     5.657
  36.020	        44	    1200	     6.633
  36.040	        30	    1200	     5.477
  36.060	        41	    1200	     6.403
  36.080	        31	    1200	     5.568
  36.100	        43	    1200	     6.557
  36.120	        48	    1200	     6.928
  36.140	        36	    1200	     6.000
  36.160	        45	    1200	     6.708
  36.180	        33	    1200	     5.745
  36.200	        39	    1200	     6.245
  36.220	        39	    1200	     6.245
  36.240	        28	    1200	     5.292
  36.260	        40	    1200	     6.325
  36.280	        42	    1200	     6.481
  36.300	        33	    1200	     5.745
  36.320	        28	    1200	     5.292
  36.340	        22	    1200	     4.690
  36.360	        42	    1200	     6.481
  36.380	        33	    1200	     5.745
  36.400	        32	    1200	     5.657
  36.420	        31	    1200	     5.568
  36.440	        34	    1200	     5.831
  36.460	        39	    1200	     6.245
  36.480	        40	    1200	     6.325
  36.500	        41	    1200	     6.403
  36.520	        31	    1200	     5.568
  36.540	        31	    1200	     5.568
  36.560	        35	    1200	     5.916
  36.580	        40	    1200	     6.325
  36.600	        42	    1200	     6.481
  36.620	        35	    1200	     5.916
  36.640	        45	    1200	     6.708
  36.660	        40	    1200	     6.325
  36.680	        25	    1200	     5.000
  36.700	        35	    1200	     5.916
  36.720	        41	    1200	     6.403
  36.740	        30	    1200	     5.477
  36.760	        25	    1200	     5.000
  36.780	        38	    1200	     6.164
  36.800	        42	    1200	     6.481
  36.820	        32	    1200	     5.657
  36.840	        41	    1200	     6.403
  36.860	        39	    1200	     6.245
  36.880	        31	    1200	     5.568
  36.900	        40	    1200	     6.325
  36.920	        39	    1200	     6.245
  36.940	        36	    1200	     6.000
  36.960	        41	    1200	     6.403
  36.980	        32	    1200	     5.657
  37.000	        42	    1200	     6.481
  37.020	        35	    1200	     5.916
  37.040	        34	    1200	     5.831
  37.060	        29	    1200	     5.385
  37.080	        34	    1200	     5.831
  37.100	        49	    1200	     7.000
  37.120	        37	    1200	     6.083
  37.140	        38	    1200	     6.164
  37.160	        28	    1200	     5.292
  37.180	        39	    1200	     6.245
  37.200	        30	    1200	     5.477
  37.220	        34	    1200	     5.831
  37.240	        34	    1200	     5.831
  37.260	        40	    1200	     6.325
  37.280	        33	    1200	     5.745
  37.300	        36	    1200	     6.000
  37.320	        31	    1200	     5.568
  37.340	        35	    1200	     5.916
  37.360	        33	    1200	     5.745
  37.380	        37	    1200	     6.083
  37.400	        32	    1200	     5.657
  37.420	        43	    1200	     6.557
  37.440	        35	    1200	     5.916
  37.460	        43	    1200	     6.557
  37.480	        45	    1200	     6.708
  37.500	        36	    1200	     6.000
  37.520	        35	    1200	     5.916
  37.540	        40	    1200	     6.325
  37.560	        36	    1200	     6.000
  37.580	        47	    1200	     6.856
  37.600	        39	    1200	     6.245
  37.620	        47	    1200	     6.856
  37.640	        34	    1200	     5.831
  37.660	        36	    1200	     6.000
  37.680	        42	    1200	     6.481
  37.700	        36	    1200	     6.000
  37.720	        25	    1200	     5.000
  37.740	        47	    1200	     6.856
  37.760	        28	    1200	     5.292
  37.780	        39	    1200	     6.245
  37.800	        34	    1200	     5.831
  37.820	        40	    1200	     6.325
  37.840	        31	    1200	     5.568
  37.860	        40	    1200	     6.325
  37.880	        35	    1200	     5.916
  37.900	        39	    1200	     6.245
  37.920	        34	    1200	     5.831
  37.940	        47	    1200	     6.856
  37.960	        36	    1200	     6.000
  37.980	        33	    1200	     5.745
  38.000	        32	    1200	     5.657
  38.020	        33	    1200	     5.745
  38.040	        36	    1200	     6.000
  38.060	        34	    1200	     5.831
  38.080	        38	    1200	     6.164
  38.100	        32	    1200	     5.657
  38.120	        27	    1200	     5.196
  38.140	        38	    1200	     6.164
  38.160	        34	    1200	     5.831
  38.180	        34	    1200	     5.831
  38.200	        38	    1200	     6.164
  38.220	        29	    1200	     5.385
  38.240	        34	    1200	     5.831
  38.260	        32	    1200	     5.657
  38.280	        29	    1200	     5.385
  38.300	        33	    1200	     5.745
  38.320	        34	    1200	     5.831
  38.340	        36	    1200	     6.000
  38.360	        36	    1200	     6.000
  38.380	        30	    1200	     5.477
  38.400	        42	    1200	     6.481
  38.420	        38	    1200	     6.164
  38.440	        37	    1200	     6.083
  38.460	        31	    1200	     5.568
  38.480	        28	    1200	     5.292
  38.500	        40	    1200	     6.325
  38.520	        21	    1200	     4.583
  38.540	        35	    1200	     5.916
  38.560	        42	    1200	     6.481
  38.580	        30	    1200	     5.477
  38.600	        29	    1200	     5.385
  38.620	        27	    1200	     5.196
  38.640	        24	    1200	     4.899
  38.660	        31	    1200	     5.568
  38.680	        47	    1200	     6.856
  38.700	        34	    1200	     5.831
  38.720	        27	    1200	     5.196
  38.740	        29	    1200	     5.385
  38.760	        32	    1200	     5.657
  38.780	        23	    1200	     4.796
  38.800	        29	    1200	     5.385
  38.820	        30	    1200	     5.477
  38.840	        33	    1200	     5.745
  38.860	        30	    1200	     5.477
  38.880	        30	    1200	     5.477
  38.900	        36	    1200	     6.000
  38.920	        27	    1200	     5.196
  38.940	        30	    1200	     5.477
  38.960	        44	    1200	     6.633
  38.980	        41	    1200	     6.403
  39.000	        20	    1200	     4.472
  39.020	        26	    1200	     5.099
  39.040	        20	    1200	     4.472
  39.060	        38	    1200	     6.164
  39.080	        33	    1200	     5.745
  39.100	        32	    1200	     5.657
  39.120	        21	    1200	     4.583
  39.140	        31	    1200	     5.568
  39.160	        52	    1200	     7.211
  39.180	        28	    1200	     5.292
  39.200	        36	    1200	     6.000
  39.220	        33	    1200	     5.745
  39.240	        40	    1200	     6.325
  39.260	        48	    1200	     6.928
  39.280	        37	    1200	     6.083
  39.300	        32	    1200	     5.657
  39.320	        34	    1200	     5.831
  39.340	        40	    1200	     6.325
  39.360	        36	    1200	     6.000
  39.380	        31	    1200	     5.568
  39.400	        39	    1200	     6.245
  39.420	        42	    1200	     6.481
  39.440	        41	    1200	     6.403
  39.460	        47	    1200	     6.856
  39.480	        31	    1200	     5.568
  39.500	        47	    1200	     6.856
  39.520	        50	    1200	     7.071
  39.540	        38	    1200	     6.164
  39.560	        52	    1200	     7.211
  39.580	        61	    1200	     7.810
  39.600	        61	    1200	     7.810
  39.620	        80	    1200	     8.944
  39.640	        77	    1200	     8.775
  39.660	        86	    1200	     9.274
  39.680	       112	    1200	    10.583
  39.700	       115	    1200	    10.724
  39.720	       140	    1200	    11.832
  39.740	       173	    1200	    13.153
  39.760	       197	    1200	    14.036
  39.780	       191	    1200	    13.820
  39.800	       181	    1200	    13.454
  39.820	       200	    1200	    14.142
  39.840	       191	    1200	    13.820
  39.860	       195	    1200	    13.964
  39.880	       198	    1200	    14.071
  39.900	       155	    1200	    12.450
  39.920	       178	    1200	    13.342
  39.940	       155	    1200	    12.450
  39.960	       138	    1200	    11.747
  39.980	       101	    1200	    10.050
  40.000	        99	    1200	     9.950
  40.020	        74	    1200	     8.602
  40.040	        75	    1200	     8.660
  40.060	        75	    1200	     8.660
  40.080	        66	    1200	     8.124
  40.100	        57	    1200	     7.550
  40.120	        65	    1200	     8.062
  40.140	        55	    1200	     7.416
  40.160	        56	    1200	     7.483
  40.180	        54	    1200	     7.348
  40.200	        49	    1200	     7.000
  40.220	        59	    1200	     7.681
  40.240	        45	    1200	     6.708
  40.260	        34	    1200	     5.831
  40.280	        43	    1200	     6.557
  40.300	        48	    1200	     6.928
  40.320	        38	    1200	     6.164
  40.340	        40	    1200	     6.325
  40.360	        34	    1200	     5.831
  40.380	        43	    1200	     6.557
  40.400	        57	    1200	     7.550
  40.420	        38	    1200	     6.164
  40.440	        44	    1200	     6.633
  40.460	        31	    1200	     5.568
  40.480	        29	    1200	     5.385
  40.500	        34	    1200	     5.831
  40.520	        33	    1200	     5.745
  40.540	        35	    1200	     5.916
  40.560	        42	    1200	     6.481
  40.580	        41	    1200	     6.403
  40.600	        39	    1200	     6.245
  40.620	        42	    1200	     6.481
  40.640	        32	    1200	     5.657
  40.660	        52	    1200	     7.211
  40.680	        48	    1200	     6.928
  40.700	        29	    1200	     5.385
  40.720	        34	    1200	     5.831
  40.740	        41	    1200	     6.403
  40.760	        25	    1200	     5.000
  40.780	        43	    1200	     6.557
  40.800	        29	    1200	     5.385
  40.820	        45	    1200	     6.708
  40.840	        36	    1200	     6.000
  40.860	        54	    1200	     7.348
  40.880	        40	    1200	     6.325
  40.900	        45	    1200	     6.708
  40.920	        43	    1200	     6.557
  40.940	        41	    1200	     6.403
  40.960	        46	    1200	     6.782
  40.980	        54	    1200	     7.348
  41.000	        66	    1200	     8.124
  41.020	        65	    1200	     8.062
  41.040	        67	    1200	     8.185
  41.060	        66	    1200	     8.124
  41.080	        56	    1200	     7.483
  41.100	        70	    1200	     8.367
  41.120	        86	    1200	     9.274
  41.140	        67	    1200	     8.185
  41.160	        92	    1200	     9.592
  41.180	        82	    1200	     9.055
  41.200	        97	    1200	     9.849
  41.220	       104	    1200	    10.198
  41.240	       111	    1200	    10.536
  41.260	        92	    1200	     9.592
  41.280	       114	    1200	    10.677
  41.300	        92	    1200	     9.592
  41.320	       105	    1200	    10.247
  41.340	       107	    1200	    10.344
  41.360	       103	    1200	    10.149
  41.380	       123	    1200	    11.091
  41.400	       126	    1200	    11.225
  41.420	       104	    1200	    10.198
  41.440	        96	    1200	     9.798
  41.460	       112	    1200	    10.583
  41.480	       107	    1200	    10.344
  41.500	        70	    1200	     8.367
  41.520	        75	    1200	     8.660
  41.540	       100	    1200	    10.000
  41.560	        83	    1200	     9.110
  41.580	        77	    1200	     8.775
  41.600	        87	    1200	     9.327
  41.620	        79	    1200	     8.888
  41.640	        90	    1200	     9.487
  41.660	        86	    1200	     9.274
  41.680	        97	    1200	     9.849
  41.700	        54	    1200	     7.348
  41.720	        59	    1200	     7.681
  41.740	        67	    1200	     8.185
  41.760	        70	    1200	     8.367
  41.780	        63	    1200	     7.937
  41.800	        66	    1200	     8.124
  41.820	        82	    1200	     9.055
  41.840	        68	    1200	     8.246
  41.860	        78	    1200	     8.832
  41.880	        68	    1200	     8.246
  41.900	        66	    1200	     8.124
  41.920	        64	    1200	     8.000
  41.940	        73	    1200	     8.544
  41.960	        71	    1200	     8.426
  41.980	        60	    1200	     7.746
  42.000	        78	    1200	     8.832
  42.020	        66	    1200	     8.124
  42.040	        55	    1200	     7.416
  42.060	        66	    1200	     8.124
  42.080	        50	    1200	     7.071
  42.100	        78	    1200	     8.832
  42.120	        66	    1200	     8.124
  42.140	        58	    1200	     7.616
  42.160	        58	    1200	     7.616
  42.180	        50	    1200	     7.071
  42.200	        49	    1200	     7.000
  42.220	        47	    1200	     6.856
  42.240	        48	    1200	     6.928
  42.260	        42	    1200	     6.481
  42.280	        55	    1200	     7.416
  42.300	        42	    1200	     6.481
  42.320	        38	    1200	     6.164
  42.340	        52	    1200	     7.211
  42.360	        40	    1200	     6.325
  42.380	        35	    1200	     5.916
  42.400	        42	    1200	     6.481
  42.420	        41	    1200	     6.403
  42.440	        37	    1200	     6.083
  42.460	        27	    1200	     5.196
  42.480	        28	    1200	     5.292
  42.500	        31	    1200	     5.568
  42.520	        31	    1200	     5.568
  42.540	        28	    1200	     5.292
  42.560	        34	    1200	     5.831
  42.580	        28	    1200	     5.292
  42.600	        23	    1200	     4.796
  42.620	        23	    1200	     4.796
  42.640	        30	    1200	     5.477
  42.660	        44	    1200	     6.633
  42.680	        36	    1200	     6.000
  42.700	        18	    1200	     4.243
  42.720	        35	    1200	     5.916
  42.740	        33	    1200	     5.745
  42.760	        30	    1200	     5.477
  42.780	        32	    1200	     5.657
  42.800	        26	    1200	     5.099
  42.820	        29	    1200	     5.385
  42.840	        28	    1200	     5.292
  42.860	        27	    1200	     5.196
  42.880	        22	    1200	     4.690
  42.900	        20	    1200	     4.472
  42.920	        22	    1200	     4.690
  42.940	        25	    1200	     5.000
  42.960	        27	    1200	     5.196
  42.980	        22	    1200	     4.690
  43.000	        29	    1200	     5.385
  43.020	        36	    1200	     6.000
  43.040	        28	    1200	     5.292
  43.060	        35	    1200	     5.916
  43.080	        34	    1200	     5.831
  43.100	        27	    1200	     5.196
  43.120	        25	    1200	     5.000
  43.140	        25	    1200	     5.000
  43.160	        33	    1200	     5.745
  43.180	        23	    1200	     4.796
  43.200	        26	    1200	     5.099
  43.220	        20	    1200	     4.472
  43.240	        17	    1200	     4.123
  43.260	        29	    1200	     5.385
  43.280	        34	    1200	     5.831
  43.300	        34	    1200	     5.831
  43.320	        28	    1200	     5.292
  43.340	        33	    1200	     5.745
  43.360	        25	    1200	     5.000
  43.380	        36	    1200	     6.000
  43.400	        27	    1200	     5.196
  43.420	        34	    1200	     5.831
  43.440	        37	    1200	     6.083
  43.460	        25	    1200	     5.000
  43.480	        26	    1200	     5.099
  43.500	        34	    1200	     5.831
  43.520	        30	    1200	     5.477
  43.540	        28	    1200	     5.292
  43.560	        31	    1200	     5.568
  43.580	        27	    1200	     5.196
  43.600	        22	    1200	     4.690
  43.620	        26	    1200	     5.099
  43.640	        35	    1200	     5.916
  43.660	        35	    1200	     5.916
  43.680	        34	    1200	     5.831
  43.700	        38	    1200	     6.164
  43.720	        28	    1200	     5.292
  43.740	        27	    1200	     5.196
  43.760	        37	    1200	     6.083
  43.780	        40	    1200	     6.325
  43.800	        37	    1200	     6.083
  43.820	        38	    1200	     6.164
  43.840	        31	    1200	     5.568
  43.860	        36	    1200	     6.000
  43.880	        30	    1200	     5.477
  43.900	        48	    1200	     6.928
  43.920	        35	    1200	     5.916
  43.940	        52	    1200	     7.211
  43.960	        36	    1200	     6.000
  43.980	        48	    1200	     6.928
  44.000	        38	    1200	     6.164
  44.020	        42	    1200	     6.481
  44.040	        53	    1200	     7.280
  44.060	        53	    1200	     7.280
  44.080	        45	    1200	     6.708
  44.100	        56	    1200	     7.483
  44.120	        50	    1200	     7.071
  44.140	        55	    1200	     7.416
  44.160	        52	    1200	     7.211
  44.180	        48	    1200	     6.928
  44.200	        55	    1200	     7.416
  44.220	        58	    1200	     7.616
  44.240	        63	    1200	     7.937
  44.260	        67	    1200	     8.185
  44.280	        88	    1200	     9.381
  44.300	        81	    1200	     9.000
  44.320	        93	    1200	     9.644
  44.340	        87	    1200	     9.327
  44.360	       102	    1200	    10.100
  44.380	       140	    1200	    11.832
  44.400	        94	    1200	     9.695
  44.420	       158	    1200	    12.570
  44.440	       164	    1200	    12.806
  44.460	       207	    1200	    14.387
  44.480	       207	    1200	    14.387
  44.500	       251	    1200	    15.843
  44.520	       262	    1200	    16.186
  44.540	       252	    1200	    15.875
  44.560	       273	    1200	    16.523
  44.580	       247	    1200	    15.716
  44.600	       254	    1200	    15.937
  44.620	       236	    1200	    15.362
  44.640	       213	    1200	    14.595
  44.660	       225	    1200	    15.000
  44.680	       204	    1200	    14.283
  44.700	       187	    1200	    13.675
  44.720	       190	    1200	    13.784
  44.740	       156	    1200	    12.490
  44.760	       153	    1200	    12.369
  44.780	       124	    1200	    11.136
  44.800	       120	    1200	    10.954
  44.820	        99	    1200	     9.950
  44.840	        90	    1200	     9.487
  44.860	        82	    1200	     9.055
  44.880	        87	    1200	     9.327
  44.900	        82	    1200	     9.055
  44.920	        77	    1200	     8.775
  44.940	        73	    1200	     8.544
  44.960	        69	    1200	     8.307
  44.980	        56	    1200	     7.483
  45.000	        40	    1200	     6.325
  45.020	        50	    1200	     7.071
  45.040	        61	    1200	     7.810
  45.060	        52	    1200	     7.211
  45.080	        62	    1200	     7.874
  45.100	        56	    1200	     7.483
  45.120	        45	    1200	     6.708
  45.140	        41	    1200	     6.403
  45.160	        34	    1200	     5.831
  45.180	        48	    1200	     6.928
  45.200	        50	    1200	     7.071
  45.220	        50	    1200	     7.071
  45.240	        45	    1200	     6.708
  45.260	        50	    1200	     7.071
  45.280	        42	    1200	     6.481
  45.300	        46	    1200	     6.782
  45.320	        42	    1200	     6.481
  45.340	        47	    1200	     6.856
  45.360	        47	    1200	     6.856
  45.380	        40	    1200	     6.325
  45.400	        49	    1200	     7.000
  45.420	        39	    1200	     6.245
  45.440	        49	    1200	     7.000
  45.460	        45	    1200	     6.708
  45.480	        43	    1200	     6.557
  45.500	        46	    1200	     6.782
  45.520	        48	    1200	     6.928
  45.540	        35	    1200	     5.916
  45.560	        48	    1200	     6.928
  45.580	        45	    1200	     6.708
  45.600	        40	    1200	     6.325
  45.620	        67	    1200	     8.185
  45.640	        43	    1200	     6.557
  45.660	        62	    1200	     7.874
  45.680	        53	    1200	     7.280
  45.700	        49	    1200	     7.000
  45.720	        45	    1200	     6.708
  45.740	        50	    1200	     7.071
  45.760	        52	    1200	     7.211
  45.780	        58	    1200	     7.616
  45.800	        43	    1200	     6.557
  45.820	        52	    1200	     7.211
  45.840	        53	    1200	     7.280
  45.860	        59	    1200	     7.681
  45.880	        66	    1200	     8.124
  45.900	        62	    1200	     7.874
  45.920	        76	    1200	     8.718
  45.940	        65	    1200	     8.062
  45.960	        71	    1200	     8.426
  45.980	        71	    1200	     8.426
  46.000	        80	    1200	     8.944
  46.020	        99	    1200	     9.950
  46.040	        96	    1200	     9.798
  46.060	       123	    1200	    11.091
  46.080	       133	    1200	    11.533
  46.100	       150	    1200	    12.247
  46.120	       176	    1200	    13.266
  46.140	       188	    1200	    13.711
  46.160	       216	    1200	    14.697
  46.180	       241	    1200	    15.524
  46.200	       297	    1200	    17.234
  46.220	       371	    1200	    19.261
  46.240	       393	    1200	    19.824
  46.260	       481	    1200	    21.932
  46.280	       562	    1200	    23.707
  46.300	       617	    1200	    24.839
  46.320	       684	    1200	    26.153
  46.340	       708	    1200	    26.608
  46.360	       708	    1200	    26.608
  46.380	       779	    1200	    27.911
  46.400	       756	    1200	    27.495
  46.420	       746	    1200	    27.313
  46.440	       736	    1200	    27.129
  46.460	       712	    1200	    26.683
  46.480	       650	    1200	    25.495
  46.500	       559	    1200	    23.643
  46.520	       477	    1200	    21.840
  46.540	       464	    1200	    21.541
  46.560	       403	    1200	    20.075
  46.580	       329	    1200	    18.138
  46.600	       278	    1200	    16.673
  46.620	       257	    1200	    16.031
  46.640	       202	    1200	    14.213
  46.660	       146	    1200	    12.083
  46.680	       140	    1200	    11.832
  46.700	       123	    1200	    11.091
  46.720	        97	    1200	     9.849
  46.740	        82	    1200	     9.055
  46.760	        83	    1200	     9.110
  46.780	        80	    1200	     8.944
  46.800	        82	    1200	     9.055
  46.820	        68	    1200	     8.246
  46.840	        47	    1200	     6.856
  46.860	        50	    1200	     7.071
  46.880	        59	    1200	     7.681
  46.900	        47	    1200	     6.856
  46.920	        53	    1200	     7.280
  46.940	        48	    1200	     6.928
  46.960	        50	    1200	     7.071
  46.980	        40	    1200	     6.325
  47.000	        43	    1200	     6.557
  47.020	        37	    1200	     6.083
  47.040	        48	    1200	     6.928
  47.060	        33	    1200	     5.745
  47.080	        33	    1200	     5.745
  47.100	        31	    1200	     5.568
  47.120	        31	    1200	     5.568
  47.140	        30	    1200	     5.477
  47.160	        35	    1200	     5.916
  47.180	        38	    1200	     6.164
  47.200	        26	    1200	     5.099
  47.220	        32	    1200	     5.657
  47.240	        27	    1200	     5.196
  47.260	        26	    1200	     5.099
  47.280	        34	    1200	     5.831
  47.300	        33	    1200	     5.745
  47.320	        34	    1200	     5.831
  47.340	        34	    1200	     5.831
  47.360	        40	    1200	     6.325
  47.380	        27	    1200	     5.196
  47.400	        27	    1200	     5.196
  47.420	        35	    1200	     5.916
  47.440	        32	    1200	     5.657
  47.460	        32	    1200	     5.657
  47.480	        31	    1200	     5.568
  47.500	        28	    1200	     5.292
  47.520	        29	    1200	     5.385
  47.540	        30	    1200	     5.477
  47.560	        16	    1200	     4.000
  47.580	        23	    1200	     4.796
  47.600	        28	    1200	     5.292
  47.620	        23	    1200	     4.796
  47.640	        31	    1200	     5.568
  47.660	        24	    1200	     4.899
  47.680	        29	    1200	     5.385
  47.700	        28	    1200	     5.292
  47.720	        22	    1200	     4.690
  47.740	        34	    1200	     5.831
  47.760	        29	    1200	     5.385
  47.780	        18	    1200	     4.243
  47.800	        16	    1200	     4.000
  47.820	        26	    1200	     5.099
  47.840	        24	    1200	     4.899
  47.860	        35	    1200	     5.916
  47.880	        24	    1200	     4.899
  47.900	        13	    1200	     3.606
  47.920	        23	    1200	     4.796
  47.940	        14	    1200	     3.742
  47.960	        26	    1200	     5.099
  47.980	        28	    1200	     5.292
  48.000	        22	    1200	     4.690
  48.020	        22	    1200	     4.690
  48.040	        23	    1200	     4.796
  48.060	        24	    1200	     4.899
  48.080	        22	    1200	     4.690
  48.100	        25	    1200	     5.000
  48.120	        30	    1200	     5.477
  48.140	        12	    1200	     3.464
  48.160	        29	    1200	     5.385
  48.180	        23	    1200	     4.796
  48.200	        26	    1200	     5.099
  48.220	        23	    1200	     4.796
  48.240	        33	    1200	     5.745
  48.260	        22	    1200	     4.690
  48.280	        40	    1200	     6.325
  48.300	        33	    1200	     5.745
  48.320	        20	    1200	     4.472
  48.340	        37	    1200	     6.083
  48.360	        25	    1200	     5.000
  48.380	        22	    1200	     4.690
  48.400	        18	    1200	     4.243
  48.420	        18	    1200	     4.243
  48.440	        18	    1200	     4.243
  48.460	        19	    1200	     4.359
  48.480	        23	    1200	     4.796
  48.500	        21	    1200	     4.583
  48.520	        18	    1200	     4.243
  48.540	        16	    1200	     4.000
  48.560	        10	    1200	     3.162
  48.580	        20	    1200	     4.472
  48.600	        23	    1200	     4.796
  48.620	        21	    1200	     4.583
  48.640	        18	    1200	     4.243
  48.660	        13	    1200	     3.606
  48.680	        16	    1200	     4.000
  48.700	        20	    1200	     4.472
  48.720	        14	    1200	     3.742
  48.740	        18	    1200	     4.243
  48.760	        23	    1200	     4.796
  48.780	        18	    1200	     4.243
  48.800	        25	    1200	     5.000
  48.820	        25	    1200	     5.000
  48.840	        20	    1200	     4.472
  48.860	        27	    1200	     5.196
  48.880	        20	    1200	     4.472
  48.900	        20	    1200	     4.472
  48.920	        28	    1200	     5.292
  48.940	        18	    1200	     4.243
  48.960	        15	    1200	     3.873
  48.980	        14	    1200	     3.742
  49.000	        26	    1200	     5.099
  49.020	        21	    1200	     4.583
  49.040	        22	    1200	     4.690
  49.060	        16	    1200	     4.000
  49.080	        16	    1200	     4.000
  49.100	        17	    1200	     4.123
  49.120	        29	    1200	     5.385
  49.140	        26	    1200	     5.099
  49.160	        13	    1200	     3.606
  49.180	        26	    1200	     5.099
  49.200	        12	    1200	     3.464
  49.220	        25	    1200	     5.000
  49.240	        19	    1200	     4.359
  49.260	        25	    1200	     5.000
  49.280	        13	    1200	     3.606
  49.300	        16	    1200	     4.000
  49.320	        13	    1200	     3.606
  49.340	        14	    1200	     3.742
  49.360	        13	    1200	     3.606
  49.380	        13	    1200	     3.606
  49.400	        22	    1200	     4.690
  49.420	        17	    1200	     4.123
  49.440	        19	    1200	     4.359
  49.460	        14	    1200	     3.742
  49.480	        16	    1200	     4.000
  49.500	        13	    1200	     3.606
  49.520	        11	    1200	     3.317
  49.540	        15	    1200	     3.873
  49.560	        17	    1200	     4.123
  49.580	        20	    1200	     4.472
  49.600	        12	    1200	     3.464
  49.620	        16	    1200	     4.000
  49.640	        20	    1200	     4.472
  49.660	        23	    1200	     4.796
  49.680	        14	    1200	     3.742
  49.700	        17	    1200	     4.123
  49.720	        13	    1200	     3.606
  49.740	        13	    1200	     3.606
  49.760	        14	    1200	     3.742
  49.780	        14	    1200	     3.742
  49.800	        13	    1200	     3.606
  49.820	        15	    1200	     3.873
  49.840	        10	    1200	     3.162
  49.860	        14	    1200	     3.742
  49.880	         8	    1200	     2.828
  49.900	         7	    1200	     2.646
  49.920	        23	    1200	     4.796
  49.940	        19	    1200	     4.359
  49.960	        18	    1200	     4.243
  49.980	        17	    1200	     4.123
  50.000	        16	    1200	     4.000
  50.020	        21	    1200	     4.583
  50.040	        22	    1200	     4.690
  50.060	        19	    1200	     4.359
  50.080	        16	    1200	     4.000
  50.100	        21	    1200	     4.583
  50.120	        15	    1200	     3.873
  50.140	        18	    1200	     4.243
  50.160	        12	    1200	     3.464
  50.180	        17	    1200	     4.123
  50.200	        13	    1200	     3.606
  50.220	        15	    1200	     3.873
  50.240	        15	    1200	     3.873
  50.260	        15	    1200	     3.873
  50.280	        16	    1200	     4.000
  50.300	        15	    1200	     3.873
  50.320	        18	    1200	     4.243
  50.340	        18	    1200	     4.243
  50.360	        19	    1200	     4.359
  50.380	        10	    1200	     3.162
  50.400	        20	    1200	     4.472
  50.420	        16	    1200	     4.000
  50.440	         9	    1200	     3.000
  50.460	         8	    1200	     2.828
  50.480	        18	    1200	     4.243
  50.500	        19	    1200	     4.359
  50.520	        13	    1200	     3.606
  50.540	        18	    1200	     4.243
  50.560	        15	    1200	     3.873
  50.580	        18	    1200	     4.243
  50.600	        17	    1200	     4.123
  50.620	        14	    1200	     3.742
  50.640	        21	    1200	     4.583
  50.660	        12	    1200	     3.464
  50.680	        15	    1200	     3.873
  50.700	        14	    1200	     3.742
  50.720	        14	    1200	     3.742
  50.740	        18	    1200	     4.243
  50.760	        19	    1200	     4.359
  50.780	        12	    1200	     3.464
  50.800	        18	    1200	     4.243
  50.820	        23	    1200	     4.796
  50.840	        21	    1200	     4.583
  50.860	        12	    1200	     3.464
  50.880	        22	    1200	     4.690
  50.900	        16	    1200	     4.000
  50.920	        14	    1200	     3.742
  50.940	        13	    1200	     3.606
  50.960	        17	    1200	     4.123
  50.980	        23	    1200	     4.796
  51.000	        16	    1200	     4.000
  51.020	        19	    1200	     4.359
  51.040	        14	    1200	     3.742
  51.060	        16	    1200	     4.000
  51.080	        19	    1200	     4.359
  51.100	        10	    1200	     3.162
  51.120	        13	    1200	     3.606
  51.140	        10	    1200	     3.162
  51.160	        20	    1200	     4.472
  51.180	        19	    1200	     4.359
  51.200	        19	    1200	     4.359
  51.220	        14	    1200	     3.742
  51.240	        16	    1200	     4.000
  51.260	        11	    1200	     3.317
  51.280	        18	    1200	     4.243
  51.300	        18	    1200	     4.243
  51.320	        21	    1200	     4.583
  51.340	        15	    1200	     3.873
  51.360	        16	    1200	     4.000
  51.380	        17	    1200	     4.123
  51.400	        14	    1200	     3.742
  51.420	        21	    1200	     4.583
  51.440	        14	    1200	     3.742
  51.460	        15	    1200	     3.873
  51.480	        13	    1200	     3.606
  51.500	        13	    1200	     3.606
  51.520	        15	    1200	     3.873
  51.540	        15	    1200	     3.873
  51.560	        23	    1200	     4.796
  51.580	        19	    1200	     4.359
  51.600	        26	    1200	     5.099
  51.620	        27	    1200	     5.196
  51.640	        18	    1200	     4.243
  51.660	        14	    1200	     3.742
  51.680	        24	    1200	     4.899
  51.700	        15	    1200	     3.873
  51.720	        14	    1200	     3.742
  51.740	        13	    1200	     3.606
  51.760	        18	    1200	     4.243
  51.780	        22	    1200	     4.690
  51.800	        22	    1200	     4.690
  51.820	        15	    1200	     3.873
  51.840	        14	    1200	     3.742
  51.860	         8	    1200	     2.828
  51.880	        12	    1200	     3.464
  51.900	        24	    1200	     4.899
  51.920	        13	    1200	     3.606
  51.940	        22	    1200	     4.690
  51.960	        30	    1200	     5.477
  51.980	        16	    1200	     4.000
  52.000	        21	    1200	     4.583
  52.020	        31	    1200	     5.568
  52.040	        30	    1200	     5.477
  52.060	        21	    1200	     4.583
  52.080	        34	    1200	     5.831
  52.100	        36	    1200	     6.000
  52.120	        34	    1200	     5.831
  52.140	        35	    1200	     5.916
  52.160	        38	    1200	     6.164
  52.180	        37	    1200	     6.083
  52.200	        45	    1200	     6.708
  52.220	        49	    1200	     7.000
  52.240	        35	    1200	     5.916
  52.260	        41	    1200	     6.403
  52.280	        36	    1200	     6.000
  52.300	        24	    1200	     4.899
  52.320	        36	    1200	     6.000
  52.340	        44	    1200	     6.633
  52.360	        50	    1200	     7.071
  52.380	        38	    1200	     6.164
  52.400	        39	    1200	     6.245
  52.420	        39	    1200	     6.245
  52.440	        36	    1200	     6.000
  52.460	        39	    1200	     6.245
  52.480	        35	    1200	     5.916
  52.500	        41	    1200	     6.403
  52.520	        43	    1200	     6.557
  52.540	        27	    1200	     5.196
  52.560	        44	    1200	     6.633
  52.580	        32	    1200	     5.657
  52.600	        34	    1200	     5.831
  52.620	        32	    1200	     5.657
  52.640	        27	    1200	     5.196
  52.660	        22	    1200	     4.690
  52.680	        32	    1200	     5.657
  52.700	        27	    1200	     5.196
  52.720	        27	    1200	     5.196
  52.740	        19	    1200	     4.359
  52.760	        19	    1200	     4.359
  52.780	        13	    1200	     3.606
  52.800	        18	    1200	     4.243
  52.820	        23	    1200	     4.796
  52.840	        22	    1200	     4.690
  52.860	        17	    1200	     4.123
  52.880	        15	    1200	     3.873
  52.900	        33	    1200	     5.745
  52.920	        19	    1200	     4.359
  52.940	        25	    1200	     5.000
  52.960	        17	    1200	     4.123
  52.980	        19	    1200	     4.359
  53.000	        19	    1200	     4.359
  53.020	        21	    1200	     4.583
  53.040	        18	    1200	     4.243
  53.060	        23	    1200	     4.796
  53.080	        24	    1200	     4.899
  53.100	        29	    1200	     5.385
  53.120	        22	    1200	     4.690
  53.140	        31	    1200	     5.568
  53.160	        24	    1200	     4.899
  53.180	        25	    1200	     5.000
  53.200	        21	    1200	     4.583
  53.220	        20	    1200	     4.472
  53.240	        28	    1200	     5.292
  53.260	        27	    1200	     5.196
  53.280	        25	    1200	     5.000
  53.300	        30	    1200	     5.477
  53.320	        24	    1200	     4.899
  53.340	        32	    1200	     5.657
  53.360	        24	    1200	     4.899
  53.380	        28	    1200	     5.292
  53.400	        36	    1200	     6.000
  53.420	        31	    1200	     5.568
  53.440	        36	    1200	     6.000
  53.460	        32	    1200	     5.657
  53.480	        38	    1200	     6.164
  53.500	        43	    1200	     6.557
  53.520	        24	    1200	     4.899
  53.540	        40	    1200	     6.325
  53.560	        26	    1200	     5.099
  53.580	        21	    1200	     4.583
  53.600	        32	    1200	     5.657
  53.620	        28	    1200	     5.292
  53.640	        42	    1200	     6.481
  53.660	        30	    1200	     5.477
  53.680	        28	    1200	     5.292
  53.700	        39	    1200	     6.245
  53.720	        23	    1200	     4.796
  53.740	        30	    1200	     5.477
  53.760	        26	    1200	     5.099
  53.780	        45	    1200	     6.708
  53.800	        31	    1200	     5.568
  53.820	        36	    1200	     6.000
  53.840	        30	    1200	     5.477
  53.860	        35	    1200	     5.916
  53.880	        31	    1200	     5.568
  53.900	        41	    1200	     6.403
  53.920	        27	    1200	     5.196
  53.940	        27	    1200	     5.196
  53.960	        29	    1200	     5.385
  53.980	        19	    1200	     4.359
  54.000	        32	    1200	     5.657
  54.020	        27	    1200	     5.196
  54.040	        30	    1200	     5.477
  54.060	        34	    1200	     5.831
  54.080	        30	    1200	     5.477
  54.100	        35	    1200	     5.916
  54.120	        40	    1200	     6.325
  54.140	        26	    1200	     5.099
  54.160	        29	    1200	     5.385
  54.180	        30	    1200	     5.477
  54.200	        27	    1200	     5.196
  54.220	        19	    1200	     4.359
  54.240	        22	    1200	     4.690
  54.260	        35	    1200	     5.916
  54.280	        26	    1200	     5.099
  54.300	        21	    1200	     4.583
  54.320	        29	    1200	     5.385
  54.340	        30	    1200	     5.477
  54.360	        26	    1200	     5.099
  54.380	        27	    1200	     5.196
  54.400	        31	    1200	     5.568
  54.420	        29	    1200	     5.385
  54.440	        25	    1200	     5.000
  54.460	        32	    1200	     5.657
  54.480	        22	    1200	     4.690
  54.500	        27	    1200	     5.196
  54.520	        25	    1200	     5.000
  54.540	        20	    1200	     4.472
  54.560	        13	    1200	     3.606
  54.580	        22	    1200	     4.690
  54.600	        18	    1200	     4.243
  54.620	        23	    1200	     4.796
  54.640	        24	    1200	     4.899
  54.660	        17	    1200	     4.123
  54.680	        19	    1200	     4.359
  54.700	        23	    1200	     4.796
  54.720	        17	    1200	     4.123
  54.740	        25	    1200	     5.000
  54.760	        31	    1200	     5.568
  54.780	        27	    1200	     5.196
  54.800	        35	    1200	     5.916
  54.820	        23	    1200	     4.796
  54.840	        29	    1200	     5.385
  54.860	        23	    1200	     4.796
  54.880	        30	    1200	     5.477
  54.900	        23	    1200	     4.796
  54.920	        19	    1200	     4.359
  54.940	        18	    1200	     4.243
  54.960	        27	    1200	     5.196
  54.980	        19	    1200	     4.359
  55.000	        23	    1200	     4.796
  55.020	        23	    1200	     4.796
  55.040	        23	    1200	     4.796
  55.060	        27	    1200	     5.196
  55.080	        32	    1200	     5.657
  55.100	        29	    1200	     5.385
  55.120	        26	    1200	     5.099
  55.140	        20	    1200	     4.472
  55.160	        15	    1200	     3.873
  55.180	        20	    1200	     4.472
  55.200	        25	    1200	     5.000
  55.220	        27	    1200	     5.196
  55.240	        24	    1200	     4.899
  55.260	        21	    1200	     4.583
  55.280	        26	    1200	     5.099
  55.300	        21	    1200	     4.583
  55.320	        22	    1200	     4.690
  55.340	        29	    1200	     5.385
  55.360	        33	    1200	     5.745
  55.380	        27	    1200	     5.196
  55.400	        30	    1200	     5.477
  55.420	        31	    1200	     5.568
  55.440	        17	    1200	     4.123
  55.460	        35	    1200	     5.916
  55.480	        29	    1200	     5.385
  55.500	        34	    1200	     5.831
  55.520	        37	    1200	     6.083
  55.540	        38	    1200	     6.164
  55.560	        33	    1200	     5.745
  55.580	        32	    1200	     5.657
  55.600	        31	    1200	     5.568
  55.620	        41	    1200	     6.403
  55.640	        42	    1200	     6.481
  55.660	        45	    1200	     6.708
  55.680	        37	    1200	     6.083
  55.700	        45	    1200	     6.708
  55.720	        42	    1200	     6.481
  55.740	        28	    1200	     5.292
  55.760	        36	    1200	     6.000
  55.780	        44	    1200	     6.633
  55.800	        50	    1200	     7.071
  55.820	        46	    1200	     6.782
  55.840	        48	    1200	     6.928
  55.860	        43	    1200	     6.557
  55.880	        51	    1200	     7.141
  55.900	        44	    1200	     6.633
  55.920	        56	    1200	     7.483
  55.940	        53	    1200	     7.280
  55.960	        58	    1200	     7.616
  55.980	        50	    1200	     7.071
  56.000	        74	    1200	     8.602
  56.020	        57	    1200	     7.550
  56.040	        73	    1200	     8.544
  56.060	        81	    1200	     9.000
  56.080	        84	    1200	     9.165
  56.100	        80	    1200	     8.944
  56.120	        70	    1200	     8.367
  56.140	        91	    1200	     9.539
  56.160	        96	    1200	     9.798
  56.180	        96	    1200	     9.798
  56.200	        98	    1200	     9.899
  56.220	        98	    1200	     9.899
  56.240	        96	    1200	     9.798
  56.260	        80	    1200	     8.944
  56.280	        98	    1200	     9.899
  56.300	        93	    1200	     9.644
  56.320	        85	    1200	     9.220
  56.340	        77	    1200	     8.775
  56.360	        99	    1200	     9.950
  56.380	        75	    1200	     8.660
  56.400	        66	    1200	     8.124
  56.420	        65	    1200	     8.062
  56.440	        71	    1200	     8.426
  56.460	        68	    1200	     8.246
  56.480	        66	    1200	     8.124
  56.500	        64	    1200	     8.000
  56.520	        54	    1200	     7.348
  56.540	        49	    1200	     7.000
  56.560	        59	    1200	     7.681
  56.580	        53	    1200	     7.280
  56.600	        52	    1200	     7.211
  56.620	        56	    1200	     7.483
  56.640	        43	    1200	     6.557
  56.660	        50	    1200	     7.071
  56.680	        46	    1200	     6.782
  56.700	        45	    1200	     6.708
  56.720	        41	    1200	     6.403
  56.740	        39	    1200	     6.245
  56.760	        32	    1200	     5.657
  56.780	        44	    1200	     6.633
  56.800	        40	    1200	     6.325
  56.820	        44	    1200	     6.633
  56.840	        50	    1200	     7.071
  56.860	        50	    1200	     7.071
  56.880	        45	    1200	     6.708
  56.900	        40	    1200	     6.325
  56.920	        55	    1200	     7.416
  56.940	        56	    1200	     7.483
  56.960	        55	    1200	     7.416
  56.980	        72	    1200	     8.485
  57.000	        58	    1200	     7.616
  57.020	        63	    1200	     7.937
  57.040	        78	    1200	     8.832
  57.060	        75	    1200	     8.660
  57.080	        91	    1200	     9.539
  57.100	        97	    1200	     9.849
  57.120	       114	    1200	    10.677
  57.140	       122	    1200	    11.045
  57.160	       148	    1200	    12.166
  57.180	       152	    1200	    12.329
  57.200	       172	    1200	    13.115
  57.220	       219	    1200	    14.799
  57.240	       276	    1200	    16.613
  57.260	       297	    1200	    17.234
  57.280	       327	    1200	    18.083
  57.300	       395	    1200	    19.875
  57.320	       408	    1200	    20.199
  57.340	       401	    1200	    20.025
  57.360	       430	    1200	    20.736
  57.380	       440	    1200	    20.976
  57.400	       466	    1200	    21.587
  57.420	       454	    1200	    21.307
  57.440	       456	    1200	    21.354
  57.460	       462	    1200	    21.494
  57.480	       476	    1200	    21.817
  57.500	       439	    1200	    20.952
  57.520	       480	    1200	    21.909
  57.540	       436	    1200	    20.881
  57.560	       512	    1200	    22.627
  57.580	       472	    1200	    21.726
  57.600	       477	    1200	    21.840
  57.620	       479	    1200	    21.886
  57.640	       463	    1200	    21.517
  57.660	       421	    1200	    20.518
  57.680	       376	    1200	    19.391
  57.700	       407	    1200	    20.174
  57.720	       396	    1200	    19.900
  57.740	       363	    1200	    19.053
  57.760	       314	    1200	    17.720
  57.780	       348	    1200	    18.655
  57.800	       273	    1200	    16.523
  57.820	       251	    1200	    15.843
  57.840	       237	    1200	    15.395
  57.860	       218	    1200	    14.765
  57.880	       192	    1200	    13.856
  57.900	       188	    1200	    13.711
  57.920	       177	    1200	    13.304
  57.940	       141	    1200	    11.874
  57.960	       149	    1200	    12.207
  57.980	       117	    1200	    10.817
  58.000	       100	    1200	    10.000
  58.020	        89	    1200	     9.434
  58.040	        97	    1200	     9.849
  58.060	        90	    1200	     9.487
  58.080	        76	    1200	     8.718
  58.100	        72	    1200	     8.485
  58.120	        84	    1200	     9.165
  58.140	        57	    1200	     7.550
  58.160	        59	    1200	     7.681
  58.180	        52	    1200	     7.211
  58.200	        55	    1200	     7.416
  58.220	        49	    1200	     7.000
  58.240	        41	    1200	     6.403
  58.260	        53	    1200	     7.280
  58.280	        45	    1200	     6.708
  58.300	        43	    1200	     6.557
  58.320	        33	    1200	     5.745
  58.340	        33	    1200	     5.745
  58.360	        30	    1200	     5.477
  58.380	        27	    1200	     5.196
  58.400	        26	    1200	     5.099
  58.420	        38	    1200	     6.164
  58.440	        29	    1200	     5.385
  58.460	        36	    1200	     6.000
  58.480	        28	    1200	     5.292
  58.500	        36	    1200	     6.000
  58.520	        38	    1200	     6.164
  58.540	        36	    1200	     6.000
  58.560	        32	    1200	     5.657
  58.580	        39	    1200	     6.245
  58.600	        39	    1200	     6.245
  58.620	        28	    1200	     5.292
  58.640	        29	    1200	     5.385
  58.660	        23	    1200	     4.796
  58.680	        32	    1200	     5.657
  58.700	        26	    1200	     5.099
  58.720	        31	    1200	     5.568
  58.740	        27	    1200	     5.196
  58.760	        27	    1200	     5.196
  58.780	        38	    1200	     6.164
  58.800	        36	    1200	     6.000
  58.820	        24	    1200	     4.899
  58.840	        27	    1200	     5.196
  58.860	        22	    1200	     4.690
  58.880	        31	    1200	     5.568
  58.900	        32	    1200	     5.657
  58.920	        18	    1200	     4.243
  58.940	        19	    1200	     4.359
  58.960	        20	    1200	     4.472
  58.980	        24	    1200	     4.899
  59.000	        21	    1200	     4.583
  59.020	        36	    1200	     6.000
  59.040	        28	    1200	     5.292
  59.060	        33	    1200	     5.745
  59.080	        27	    1200	     5.196
  59.100	        26	    1200	     5.099
  59.120	        26	    1200	     5.099
  59.140	        26	    1200	     5.099
  59.160	        19	    1200	     4.359
  59.180	        24	    1200	     4.899
  59.200	        25	    1200	     5.000
  59.220	        26	    1200	     5.099
  59.240	        28	    1200	     5.292
  59.260	        17	    1200	     4.123
  59.280	        24	    1200	     4.899
  59.300	        25	    1200	     5.000
  59.320	        29	    1200	     5.385
  59.340	        22	    1200	     4.690
  59.360	        26	    1200	     5.099
  59.380	        28	    1200	     5.292
  59.400	        39	    1200	     6.245
  59.420	        18	    1200	     4.243
  59.440	        22	    1200	     4.690
  59.460	        30	    1200	     5.477
  59.480	        26	    1200	     5.099
  59.500	        24	    1200	     4.899
  59.520	        21	    1200	     4.583
  59.540	        24	    1200	     4.899
  59.560	        30	    1200	     5.477
  59.580	        35	    1200	     5.916
  59.600	        23	    1200	     4.796
  59.620	        26	    1200	     5.099
  59.640	        28	    1200	     5.292
  59.660	        23	    1200	     4.796
  59.680	        22	    1200	     4.690
  59.700	        23	    1200	     4.796
  59.720	        23	    1200	     4.796
  59.740	        21	    1200	     4.583
  59.760	        19	    1200	     4.359
  59.780	        22	    1200	     4.690
  59.800	        27	    1200	     5.196
  59.820	        28	    1200	     5.292
  59.840	        31	    1200	     5.568
  59.860	        26	    1200	     5.099
  59.880	        20	    1200	     4.472
  59.900	        17	    1200	     4.123
  59.920	        20	    1200	     4.472
  59.940	        27	    1200	     5.196
  59.960	        20	    1200	     4.472
  59.980	        19	    1200	     4.359
  60.000	        15	    1200	     3.873
  60.020	        23	    1200	     4.796
  60.040	        20	    1200	     4.472
  60.060	        25	    1200	     5.000
  60.080	        20	    1200	     4.472
  60.100	        16	    1200	     4.000
  60.120	        15	    1200	     3.873
  60.140	        25	    1200	     5.000
  60.160	        23	    1200	     4.796
  60.180	        19	    1200	     4.359
  60.200	        18	    1200	     4.243
  60.220	        21	    1200	     4.583
  60.240	        19	    1200	     4.359
  60.260	        23	    1200	     4.796
  60.280	        32	    1200	     5.657
  60.300	        11	    1200	     3.317
  60.320	        23	    1200	     4.796
  60.340	        23	    1200	     4.796
  60.360	        14	    1200	     3.742
  60.380	        29	    1200	     5.385
  60.400	        21	    1200	     4.583
  60.420	        22	    1200	     4.690
  60.440	        19	    1200	     4.359
  60.460	        16	    1200	     4.000
  60.480	        17	    1200	     4.123
  60.500	        21	    1200	     4.583
  60.520	        28	    1200	     5.292
  60.540	        23	    1200	     4.796
  60.560	        22	    1200	     4.690
  60.580	        21	    1200	     4.583
  60.600	        18	    1200	     4.243
  60.620	        26	    1200	     5.099
  60.640	        17	    1200	     4.123
  60.660	        22	    1200	     4.690
  60.680	        22	    1200	     4.690
  60.700	        25	    1200	     5.000
  60.720	        15	    1200	     3.873
  60.740	        20	    1200	     4.472
  60.760	        21	    1200	     4.583
  60.780	        22	    1200	     4.690
  60.800	        22	    1200	     4.690
  60.820	        11	    1200	     3.317
  60.840	        21	    1200	     4.583
  60.860	        19	    1200	     4.359
  60.880	        19	    1200	     4.359
  60.900	        19	    1200	     4.359
  60.920	        14	    1200	     3.742
  60.940	        17	    1200	     4.123
  60.960	        13	    1200	     3.606
  60.980	        32	    1200	     5.657
  61.000	        18	    1200	     4.243
  61.020	        20	    1200	     4.472
  61.040	        20	    1200	     4.472
  61.060	        26	    1200	     5.099
  61.080	        18	    1200	     4.243
  61.100	        20	    1200	     4.472
  61.120	        18	    1200	     4.243
  61.140	         9	    1200	     3.000
  61.160	        23	    1200	     4.796
  61.180	        19	    1200	     4.359
  61.200	        18	    1200	     4.243
  61.220	        13	    1200	     3.606
  61.240	        13	    1200	     3.606
  61.260	        19	    1200	     4.359
  61.280	        14	    1200	     3.742
  61.300	        19	    1200	     4.359
  61.320	        27	    1200	     5.196
  61.340	        30	    1200	     5.477
  61.360	        21	    1200	     4.583
  61.380	        21	    1200	     4.583
  61.400	         8	    1200	     2.828
  61.420	        15	    1200	     3.873
  61.440	        19	    1200	     4.359
  61.460	        18	    1200	     4.243
  61.480	        25	    1200	     5.000
  61.500	        21	    1200	     4.583
  61.520	        25	    1200	     5.000
  61.540	        20	    1200	     4.472
  61.560	        20	    1200	     4.472
  61.580	        26	    1200	     5.099
  61.600	        12	    1200	     3.464
  61.620	        21	    1200	     4.583
  61.640	        20	    1200	     4.472
  61.660	        12	    1200	     3.464
  61.680	         9	    1200	     3.000
  61.700	        14	    1200	     3.742
  61.720	        17	    1200	     4.123
  61.740	        18	    1200	     4.243
  61.760	        14	    1200	     3.742
  61.780	        17	    1200	     4.123
  61.800	        20	    1200	     4.472
  61.820	        12	    1200	     3.464
  61.840	        24	    1200	     4.899
  61.860	        23	    1200	     4.796
  61.880	        14	    1200	     3.742
  61.900	        26	    1200	     5.099
  61.920	        23	    1200	     4.796
  61.940	        19	    1200	     4.359
  61.960	        16	    1200	     4.000
  61.980	        15	    1200	     3.873
  62.000	        15	    1200	     3.873
  62.020	        23	    1200	     4.796
  62.040	        26	    1200	     5.099
  62.060	        14	    1200	     3.742
  62.080	        22	    1200	     4.690
  62.100	        14	    1200	     3.742
  62.120	        11	    1200	     3.317
  62.140	        17	    1200	     4.123
  62.160	        20	    1200	     4.472
  62.180	        25	    1200	     5.000
  62.200	        26	    1200	     5.099
  62.220	        30	    1200	     5.477
  62.240	        21	    1200	     4.583
  62.260	        21	    1200	     4.583
  62.280	        16	    1200	     4.000
  62.300	        26	    1200	     5.099
  62.320	        17	    1200	     4.123
  62.340	        24	    1200	     4.899
  62.360	        10	    1200	     3.162
  62.380	        21	    1200	     4.583
  62.400	        10	    1200	     3.162
  62.420	        12	    1200	     3.464
  62.440	        21	    1200	     4.583
  62.460	        14	    1200	     3.742
  62.480	        22	    1200	     4.690
  62.500	        15	    1200	     3.873
  62.520	        12	    1200	     3.464
  62.540	        13	    1200	     3.606
  62.560	        15	    1200	     3.873
  62.580	        16	    1200	     4.000
  62.600	        17	    1200	     4.123
  62.620	        22	    1200	     4.690
  62.640	        16	    1200	     4.000
  62.660	        25	    1200	     5.000
  62.680	        19	    1200	     4.359
  62.700	        22	    1200	     4.690
  62.720	        24	    1200	     4.899
  62.740	        18	    1200	     4.243
  62.760	        28	    1200	     5.292
  62.780	        17	    1200	     4.123
  62.800	        11	    1200	     3.317
  62.820	        15	    1200	     3.873
  62.840	        17	    1200	     4.123
  62.860	        22	    1200	     4.690
  62.880	        17	    1200	     4.123
  62.900	        18	    1200	     4.243
  62.920	        15	    1200	     3.873
  62.940	        23	    1200	     4.796
  62.960	        19	    1200	     4.359
  62.980	        17	    1200	     4.123
  63.000	        17	    1200	     4.123
  63.020	        29	    1200	     5.385
  63.040	        15	    1200	     3.873
  63.060	        18	    1200	     4.243
  63.080	        14	    1200	     3.742
  63.100	        17	    1200	     4.123
  63.120	        19	    1200	     4.359
  63.140	        16	    1200	     4.000
  63.160	        13	    1200	     3.606
  63.180	        21	    1200	     4.583
  63.200	        12	    1200	     3.464
  63.220	        17	    1200	     4.123
  63.240	        19	    1200	     4.359
  63.260	        19	    1200	     4.359
  63.280	        14	    1200	     3.742
  63.300	        19	    1200	     4.359
  63.320	        13	    1200	     3.606
  63.340	        20	    1200	     4.472
  63.360	        20	    1200	     4.472
  63.380	        17	    1200	     4.123
  63.400	        15	    1200	     3.873
  63.420	        15	    1200	     3.873
  63.440	        16	    1200	     4.000
  63.460	        24	    1200	     4.899
  63.480	        17	    1200	     4.123
  63.500	        27	    1200	     5.196
  63.520	        19	    1200	     4.359
  63.540	        25	    1200	     5.000
  63.560	        20	    1200	     4.472
  63.580	        24	    1200	     4.899
  63.600	        26	    1200	     5.099
  63.620	        15	    1200	     3.873
  63.640	        21	    1200	     4.583
  63.660	        22	    1200	     4.690
  63.680	        15	    1200	     3.873
  63.700	        21	    1200	     4.583
  63.720	        25	    1200	     5.000
  63.740	        20	    1200	     4.472
  63.760	        24	    1200	     4.899
  63.780	        16	    1200	     4.000
  63.800	        17	    1200	     4.123
  63.820	        25	    1200	     5.000
  63.840	        16	    1200	     4.000
  63.860	        25	    1200	     5.000
  63.880	        26	    1200	     5.099
  63.900	        25	    1200	     5.000
  63.920	        31	    1200	     5.568
  63.940	        24	    1200	     4.899
  63.960	        20	    1200	     4.472
  63.980	        25	    1200	     5.000
  64.000	        31	    1200	     5.568
  64.020	        20	    1200	     4.472
  64.040	        23	    1200	     4.796
  64.060	        32	    1200	     5.657
  64.080	        28	    1200	     5.292
  64.100	        33	    1200	     5.745
  64.120	        36	    1200	     6.000
  64.140	        31	    1200	     5.568
  64.160	        35	    1200	     5.916
  64.180	        32	    1200	     5.657
  64.200	        27	    1200	     5.196
  64.220	        23	    1200	     4.796
  64.240	        30	    1200	     5.477
  64.260	        24	    1200	     4.899
  64.280	        20	    1200	     4.472
  64.300	        38	    1200	     6.164
  64.320	        27	    1200	     5.196
  64.340	        31	    1200	     5.568
  64.360	        30	    1200	     5.477
  64.380	        23	    1200	     4.796
  64.400	        32	    1200	     5.657
  64.420	        28	    1200	     5.292
  64.440	        20	    1200	     4.472
  64.460	        20	    1200	     4.472
  64.480	        25	    1200	     5.000
  64.500	        26	    1200	     5.099
  64.520	        23	    1200	     4.796
  64.540	        27	    1200	     5.196
  64.560	        27	    1200	     5.196
  64.580	        25	    1200	     5.000
  64.600	        24	    1200	     4.899
  64.620	        23	    1200	     4.796
  64.640	        20	    1200	     4.472
  64.660	        34	    1200	     5.831
  64.680	        32	    1200	     5.657
  64.700	        35	    1200	     5.916
  64.720	        33	    1200	     5.745
  64.740	        28	    1200	     5.292
  64.760	        36	    1200	     6.000
  64.780	        41	    1200	     6.403
  64.800	        33	    1200	     5.745
  64.820	        32	    1200	     5.657
  64.840	        37	    1200	     6.083
  64.860	        29	    1200	     5.385
  64.880	        30	    1200	     5.477
  64.900	        43	    1200	     6.557
  64.920	        40	    1200	     6.325
  64.940	        26	    1200	     5.099
  64.960	        38	    1200	     6.164
  64.980	        36	    1200	     6.000
  65.000	        32	    1200	     5.657
  65.020	        43	    1200	     6.557
  65.040	        37	    1200	     6.083
  65.060	        33	    1200	     5.745
  65.080	        42	    1200	     6.481
  65.100	        30	    1200	     5.477
  65.120	        34	    1200	     5.831
  65.140	        27	    1200	     5.196
  65.160	        27	    1200	     5.196
  65.180	        25	    1200	     5.000
  65.200	        27	    1200	     5.196
  65.220	        30	    1200	     5.477
  65.240	        27	    1200	     5.196
  65.260	        25	    1200	     5.000
  65.280	        19	    1200	     4.359
  65.300	        32	    1200	     5.657
  65.320	        26	    1200	     5.099
  65.340	        24	    1200	     4.899
  65.360	        20	    1200	     4.472
  65.380	        28	    1200	     5.292
  65.400	        27	    1200	     5.196
  65.420	        15	    1200	     3.873
  65.440	        17	    1200	     4.123
  65.460	        31	    1200	     5.568
  65.480	        27	    1200	     5.196
  65.500	        18	    1200	     4.243
  65.520	        16	    1200	     4.000
  65.540	        24	    1200	     4.899
  65.560	        30	    1200	     5.477
  65.580	        23	    1200	     4.796
  65.600	        25	    1200	     5.000
  65.620	        26	    1200	     5.099
  65.640	        17	    1200	     4.123
  65.660	        25	    1200	     5.000
  65.680	        35	    1200	     5.916
  65.700	        23	    1200	     4.796
  65.720	        28	    1200	     5.292
  65.740	        27	    1200	     5.196
  65.760	        30	    1200	     5.477
  65.780	        31	    1200	     5.568
  65.800	        30	    1200	     5.477
  65.820	        25	    1200	     5.000
  65.840	        36	    1200	     6.000
  65.860	        30	    1200	     5.477
  65.880	        32	    1200	     5.657
  65.900	        40	    1200	     6.325
  65.920	        41	    1200	     6.403
  65.940	        47	    1200	     6.856
  65.960	        41	    1200	     6.403
  65.980	        48	    1200	     6.928
  66.000	        43	    1200	     6.557
  66.020	        40	    1200	     6.325
  66.040	        56	    1200	     7.483
  66.060	        45	    1200	     6.708
  66.080	        50	    1200	     7.071
  66.100	        57	    1200	     7.550
  66.120	        35	    1200	     5.916
  66.140	        40	    1200	     6.325
  66.160	        66	    1200	     8.124
  66.180	        65	    1200	     8.062
  66.200	        57	    1200	     7.550
  66.220	        72	    1200	     8.485
  66.240	        77	    1200	     8.775
  66.260	        76	    1200	     8.718
  66.280	        70	    1200	     8.367
  66.300	        78	    1200	     8.832
  66.320	        75	    1200	     8.660
  66.340	        81	    1200	     9.000
  66.360	       117	    1200	    10.817
  66.380	        93	    1200	     9.644
  66.400	        96	    1200	     9.798
  66.420	        96	    1200	     9.798
  66.440	        90	    1200	     9.487
  66.460	        77	    1200	     8.775
  66.480	        79	    1200	     8.888
  66.500	        74	    1200	     8.602
  66.520	       101	    1200	    10.050
  66.540	        76	    1200	     8.718
  66.560	        88	    1200	     9.381
  66.580	        83	    1200	     9.110
  66.600	        77	    1200	     8.775
  66.620	        71	    1200	     8.426
  66.640	        81	    1200	     9.000
  66.660	        57	    1200	     7.550
  66.680	        69	    1200	     8.307
  66.700	        80	    1200	     8.944
  66.720	        66	    1200	     8.124
  66.740	        52	    1200	     7.211
  66.760	        52	    1200	     7.211
  66.780	        56	    1200	     7.483
  66.800	        43	    1200	     6.557
  66.820	        47	    1200	     6.856
  66.840	        50	    1200	     7.071
  66.860	        39	    1200	     6.245
  66.880	        39	    1200	     6.245
  66.900	        42	    1200	     6.481
  66.920	        46	    1200	     6.782
  66.940	        36	    1200	     6.000
  66.960	        46	    1200	     6.782
  66.980	        34	    1200	     5.831
  67.000	        37	    1200	     6.083
  67.020	        49	    1200	     7.000
  67.040	        40	    1200	     6.325
  67.060	        31	    1200	     5.568
  67.080	        44	    1200	     6.633
  67.100	        32	    1200	     5.657
  67.120	        43	    1200	     6.557
  67.140	        46	    1200	     6.782
  67.160	        42	    1200	     6.481
  67.180	        54	    1200	     7.348
  67.200	        40	    1200	     6.325
  67.220	        43	    1200	     6.557
  67.240	        48	    1200	     6.928
  67.260	        61	    1200	     7.810
  67.280	        49	    1200	     7.000
  67.300	        56	    1200	     7.483
  67.320	        61	    1200	     7.810
  67.340	        69	    1200	     8.307
  67.360	        64	    1200	     8.000
  67.380	        71	    1200	     8.426
  67.400	        68	    1200	     8.246
  67.420	        81	    1200	     9.000
  67.440	        95	    1200	     9.747
  67.460	       115	    1200	    10.724
  67.480	        99	    1200	     9.950
  67.500	       112	    1200	    10.583
  67.520	       141	    1200	    11.874
  67.540	       126	    1200	    11.225
  67.560	       164	    1200	    12.806
  67.580	       167	    1200	    12.923
  67.600	       167	    1200	    12.923
  67.620	       202	    1200	    14.213
  67.640	       216	    1200	    14.697
  67.660	       232	    1200	    15.232
  67.680	       266	    1200	    16.310
  67.700	       279	    1200	    16.703
  67.720	       277	    1200	    16.643
  67.740	       281	    1200	    16.763
  67.760	       262	    1200	    16.186
  67.780	       252	    1200	    15.875
  67.800	       276	    1200	    16.613
  67.820	       234	    1200	    15.297
  67.840	       257	    1200	    16.031
  67.860	       254	    1200	    15.937
  67.880	       251	    1200	    15.843
  67.900	       198	    1200	    14.071
  67.920	       215	    1200	    14.663
  67.940	       211	    1200	    14.526
  67.960	       174	    1200	    13.191
  67.980	       161	    1200	    12.689
  68.000	       150	    1200	    12.247
  68.020	       130	    1200	    11.402
  68.040	       145	    1200	    12.042
  68.060	       123	    1200	    11.091
  68.080	       105	    1200	    10.247
  68.100	       101	    1200	    10.050
  68.120	        90	    1200	     9.487
  68.140	        78	    1200	     8.832
  68.160	        99	    1200	     9.950
  68.180	        78	    1200	     8.832
  68.200	        68	    1200	     8.246
  68.220	        63	    1200	     7.937
  68.240	        56	    1200	     7.483
  68.260	        45	    1200	     6.708
  68.280	        43	    1200	     6.557
  68.300	        53	    1200	     7.280
  68.320	        42	    1200	     6.481
  68.340	        51	    1200	     7.141
  68.360	        31	    1200	     5.568
  68.380	        43	    1200	     6.557
  68.400	        37	    1200	     6.083
  68.420	        31	    1200	     5.568
  68.440	        42	    1200	     6.481
  68.460	        35	    1200	     5.916
  68.480	        23	    1200	     4.796
  68.500	        31	    1200	     5.568
  68.520	        27	    1200	     5.196
  68.540	        28	    1200	     5.292
  68.560	        28	    1200	     5.292
  68.580	        33	    1200	     5.745
  68.600	        34	    1200	     5.831
  68.620	        23	    1200	     4.796
  68.640	        26	    1200	     5.099
  68.660	        27	    1200	     5.196
  68.680	        24	    1200	     4.899
  68.700	        20	    1200	     4.472
  68.720	        24	    1200	     4.899
  68.740	        26	    1200	     5.099
  68.760	        25	    1200	     5.000
  68.780	        23	    1200	     4.796
  68.800	        22	    1200	     4.690
  68.820	        25	    1200	     5.000
  68.840	        24	    1200	     4.899
  68.860	        21	    1200	     4.583
  68.880	        27	    1200	     5.196
  68.900	        25	    1200	     5.000
  68.920	        15	    1200	     3.873
  68.940	        24	    1200	     4.899
  68.960	        22	    1200	     4.690
  68.980	        22	    1200	     4.690
  69.000	        25	    1200	     5.000
  69.020	        20	    1200	     4.472
  69.040	        24	    1200	     4.899
  69.060	        22	    1200	     4.690
  69.080	        27	    1200	     5.196
  69.100	        17	    1200	     4.123
  69.120	        26	    1200	     5.099
  69.140	        20	    1200	     4.472
  69.160	        17	    1200	     4.123
  69.180	        23	    1200	     4.796
  69.200	        16	    1200	     4.000
  69.220	        19	    1200	     4.359
  69.240	        26	    1200	     5.099
  69.260	        15	    1200	     3.873
  69.280	        15	    1200	     3.873
  69.300	        19	    1200	     4.359
  69.320	        22	    1200	     4.690
  69.340	        21	    1200	     4.583
  69.360	        20	    1200	     4.472
  69.380	        19	    1200	     4.359
  69.400	        17	    1200	     4.123
  69.420	        15	    1200	     3.873
  69.440	        13	    1200	     3.606
  69.460	        19	    1200	     4.359
  69.480	        15	    1200	     3.873
  69.500	        21	    1200	     4.583
  69.520	        14	    1200	     3.742
  69.540	        18	    1200	     4.243
  69.560	        20	    1200	     4.472
  69.580	        23	    1200	     4.796
  69.600	        17	    1200	     4.123
  69.620	        13	    1200	     3.606
  69.640	        19	    1200	     4.359
  69.660	        16	    1200	     4.000
  69.680	        17	    1200	     4.123
  69.700	        15	    1200	     3.873
  69.720	        26	    1200	     5.099
  69.740	        17	    1200	     4.123
  69.760	        22	    1200	     4.690
  69.780	        19	    1200	     4.359
  69.800	         9	    1200	     3.000
  69.820	        13	    1200	     3.606
  69.840	        20	    1200	     4.472
  69.860	        26	    1200	     5.099
  69.880	        14	    1200	     3.742
  69.900	        19	    1200	     4.359
  69.920	        14	    1200	     3.742
  69.940	        14	    1200	     3.742
  69.960	        19	    1200	     4.359
  69.980	        17	    1200	     4.123
  70.000	        21	    1200	     4.583
  70.020	        11	    1200	     3.317
  70.040	        17	    1200	     4.123
  70.060	        16	    1200	     4.000
  70.080	        17	    1200	     4.123
  70.100	        14	    1200	     3.742
  70.120	        14	    1200	     3.742
  70.140	        20	    1200	     4.472
  70.160	        12	    1200	     3.464
  70.180	        16	    1200	     4.000
  70.200	        18	    1200	     4.243
  70.220	        15	    1200	     3.873
  70.240	        11	    1200	     3.317
  70.260	        17	    1200	     4.123
  70.280	        17	    1200	     4.123
  70.300	        16	    1200	     4.000
  70.320	        19	    1200	     4.359
  70.340	        17	    1200	     4.123
  70.360	        20	    1200	     4.472
  70.380	        11	    1200	     3.317
  70.400	        13	    1200	     3.606
  70.420	        15	    1200	     3.873
  70.440	        11	    1200	     3.317
  70.460	        12	    1200	     3.464
  70.480	        13	    1200	     3.606
  70.500	        14	    1200	     3.742
  70.520	        18	    1200	     4.243
  70.540	        19	    1200	     4.359
  70.560	        11	    1200	     3.317
  70.580	        12	    1200	     3.464
  70.600	         9	    1200	     3.000
  70.620	        15	    1200	     3.873
  70.640	        11	    1200	     3.317
  70.660	        18	    1200	     4.243
  70.680	        21	    1200	     4.583
  70.700	        14	    1200	     3.742
  70.720	        13	    1200	     3.606
  70.740	        16	    1200	     4.000
  70.760	        12	    1200	     3.464
  70.780	        17	    1200	     4.123
  70.800	        15	    1200	     3.873
  70.820	        14	    1200	     3.742
  70.840	        17	    1200	     4.123
  70.860	        14	    1200	     3.742
  70.880	        10	    1200	     3.162
  70.900	        23	    1200	     4.796
  70.920	        13	    1200	     3.606
  70.940	        16	    1200	     4.000
  70.960	        23	    1200	     4.796
  70.980	        19	    1200	     4.359
  71.000	        20	    1200	     4.472
  71.020	        16	    1200	     4.000
  71.040	        18	    1200	     4.243
  71.060	        11	    1200	     3.317
  71.080	        21	    1200	     4.583
  71.100	        20	    1200	     4.472
  71.120	        19	    1200	     4.359
  71.140	        19	    1200	     4.359
  71.160	        19	    1200	     4.359
  71.180	        16	    1200	     4.000
  71.200	        13	    1200	     3.606
  71.220	        17	    1200	     4.123
  71.240	         8	    1200	     2.828
  71.260	        12	    1200	     3.464
  71.280	        18	    1200	     4.243
  71.300	        15	    1200	     3.873
  71.320	        17	    1200	     4.123
  71.340	        17	    1200	     4.123
  71.360	        13	    1200	     3.606
  71.380	        19	    1200	     4.359
  71.400	         7	    1200	     2.646
  71.420	        13	    1200	     3.606
  71.440	         7	    1200	     2.646
  71.460	        13	    1200	     3.606
  71.480	        12	    1200	     3.464
  71.500	        14	    1200	     3.742
  71.520	        20	    1200	     4.472
  71.540	        13	    1200	     3.606
  71.560	        12	    1200	     3.464
  71.580	        19	    1200	     4.359
  71.600	        14	    1200	     3.742
  71.620	        23	    1200	     4.796
  71.640	        21	    1200	     4.583
  71.660	        17	    1200	     4.123
  71.680	        15	    1200	     3.873
  71.700	        20	    1200	     4.472
  71.720	        13	    1200	     3.606
  71.740	        15	    1200	     3.873
  71.760	        11	    1200	     3.317
  71.780	        20	    1200	     4.472
  71.800	        11	    1200	     3.317
  71.820	        15	    1200	     3.873
  71.840	        16	    1200	     4.000
  71.860	        17	    1200	     4.123
  71.880	        17	    1200	     4.123
  71.900	        25	    1200	     5.000
  71.920	        19	    1200	     4.359
  71.940	        17	    1200	     4.123
  71.960	        13	    1200	     3.606
  71.980	        10	    1200	     3.162
  72.000	        16	    1200	     4.000
  72.020	        22	    1200	     4.690
  72.040	        21	    1200	     4.583
  72.060	        18	    1200	     4.243
  72.080	        16	    1200	     4.000
  72.100	        14	    1200	     3.742
  72.120	        23	    1200	     4.796
  72.140	        24	    1200	     4.899
  72.160	        31	    1200	     5.568
  72.180	        22	    1200	     4.690
  72.200	        20	    1200	     4.472
  72.220	        27	    1200	     5.196
  72.240	        21	    1200	     4.583
  72.260	        28	    1200	     5.292
  72.280	        19	    1200	     4.359
  72.300	        21	    1200	     4.583
  72.320	        25	    1200	     5.000
  72.340	        23	    1200	     4.796
  72.360	        20	    1200	     4.472
  72.380	        25	    1200	     5.000
  72.400	        24	    1200	     4.899
  72.420	        26	    1200	     5.099
  72.440	        16	    1200	     4.000
  72.460	        32	    1200	     5.657
  72.480	        24	    1200	     4.899
  72.500	        32	    1200	     5.657
  72.520	        33	    1200	     5.745
  72.540	        28	    1200	     5.292
  72.560	        33	    1200	     5.745
  72.580	        32	    1200	     5.657
  72.600	        33	    1200	     5.745
  72.620	        29	    1200	     5.385
  72.640	        21	    1200	     4.583
  72.660	        32	    1200	     5.657
  72.680	        32	    1200	     5.657
  72.700	        27	    1200	     5.196
  72.720	        28	    1200	     5.292
  72.740	        18	    1200	     4.243
  72.760	        28	    1200	     5.292
  72.780	        26	    1200	     5.099
  72.800	        23	    1200	     4.796
  72.820	        25	    1200	     5.000
  72.840	        31	    1200	     5.568
  72.860	        25	    1200	     5.000
  72.880	        30	    1200	     5.477
  72.900	        21	    1200	     4.583
  72.920	        20	    1200	     4.472
  72.940	        20	    1200	     4.472
  72.960	        17	    1200	     4.123
  72.980	        21	    1200	     4.583
  73.000	        30	    1200	     5.477
  73.020	        22	    1200	     4.690
  73.040	        24	    1200	     4.899
  73.060	        26	    1200	     5.099
  73.080	        19	    1200	     4.359
  73.100	        31	    1200	     5.568
  73.120	        21	    1200	     4.583
  73.140	        21	    1200	     4.583
  73.160	        37	    1200	     6.083
  73.180	        26	    1200	     5.099
  73.200	        24	    1200	     4.899
  73.220	        22	    1200	     4.690
  73.240	        18	    1200	     4.243
  73.260	        22	    1200	     4.690
  73.280	        23	    1200	     4.796
  73.300	        21	    1200	     4.583
  73.320	        33	    1200	     5.745
  73.340	        18	    1200	     4.243
  73.360	        27	    1200	     5.196
  73.380	        31	    1200	     5.568
  73.400	        26	    1200	     5.099
  73.420	        27	    1200	     5.196
  73.440	        29	    1200	     5.385
  73.460	        23	    1200	     4.796
  73.480	        25	    1200	     5.000
  73.500	        31	    1200	     5.568
  73.520	        41	    1200	     6.403
  73.540	        25	    1200	     5.000
  73.560	        39	    1200	     6.245
  73.580	        28	    1200	     5.292
  73.600	        33	    1200	     5.745
  73.620	        31	    1200	     5.568
  73.640	        35	    1200	     5.916
  73.660	        25	    1200	     5.000
  73.680	        29	    1200	     5.385
  73.700	        28	    1200	     5.292
  73.720	        30	    1200	     5.477
  73.740	        34	    1200	     5.831
  73.760	        30	    1200	     5.477
  73.780	        29	    1200	     5.385
  73.800	        27	    1200	     5.196
  73.820	        34	    1200	     5.831
  73.840	        31	    1200	     5.568
  73.860	        26	    1200	     5.099
  73.880	        35	    1200	     5.916
  73.900	        37	    1200	     6.083
  73.920	        42	    1200	     6.481
  73.940	        38	    1200	     6.164
  73.960	        25	    1200	     5.000
  73.980	        36	    1200	     6.000
  74.000	        37	    1200	     6.083
  74.020	        45	    1200	     6.708
  74.040	        36	    1200	     6.000
  74.060	        31	    1200	     5.568
  74.080	        44	    1200	     6.633
  74.100	        38	    1200	     6.164
  74.120	        27	    1200	     5.196
  74.140	        35	    1200	     5.916
  74.160	        37	    1200	     6.083
  74.180	        34	    1200	     5.831
  74.200	        38	    1200	     6.164
  74.220	        34	    1200	     5.831
  74.240	        28	    1200	     5.292
  74.260	        31	    1200	     5.568
  74.280	        36	    1200	     6.000
  74.300	        30	    1200	     5.477
  74.320	        41	    1200	     6.403
  74.340	        40	    1200	     6.325
  74.360	        34	    1200	     5.831
  74.380	        31	    1200	     5.568
  74.400	        31	    1200	     5.568
  74.420	        26	    1200	     5.099
  74.440	        36	    1200	     6.000
  74.460	        26	    1200	     5.099
  74.480	        33	    1200	     5.745
  74.500	        37	    1200	     6.083
  74.520	        31	    1200	     5.568
  74.540	        34	    1200	     5.831
  74.560	        39	    1200	     6.245
  74.580	        37	    1200	     6.083
  74.600	        33	    1200	     5.745
  74.620	        28	    1200	     5.292
  74.640	        31	    1200	     5.568
  74.660	        34	    1200	     5.831
  74.680	        19	    1200	     4.359
  74.700	        30	    1200	     5.477
  74.720	        46	    1200	     6.782
  74.740	        19	    1200	     4.359
  74.760	        25	    1200	     5.000
  74.780	        37	    1200	     6.083
  74.800	        35	    1200	     5.916
  74.820	        21	    1200	     4.583
  74.840	        29	    1200	     5.385
  74.860	        31	    1200	     5.568
  74.880	        29	    1200	     5.385
  74.900	        27	    1200	     5.196
  74.920	        15	    1200	     3.873
  74.940	        16	    1200	     4.000
  74.960	        25	    1200	     5.000
  74.980	        23	    1200	     4.796
  75.000	        25	    1200	     5.000
  75.020	        25	    1200	     5.000
  75.040	        27	    1200	     5.196
  75.060	        15	    1200	     3.873
  75.080	        20	    1200	     4.472
  75.100	        23	    1200	     4.796
  75.120	        24	    1200	     4.899
  75.140	        13	    1200	     3.606
  75.160	        22	    1200	     4.690
  75.180	        19	    1200	     4.359
  75.200	        13	    1200	     3.606
  75.220	        23	    1200	     4.796
  75.240	        21	    1200	     4.583
  75.260	        15	    1200	     3.873
  75.280	        18	    1200	     4.243
  75.300	        22	    1200	     4.690
  75.320	        18	    1200	     4.243
  75.340	        16	    1200	     4.000
  75.360	        24	    1200	     4.899
  75.380	        26	    1200	     5.099
  75.400	        13	    1200	     3.606
  75.420	        14	    1200	     3.742
  75.440	        15	    1200	     3.873
  75.460	        22	    1200	     4.690
  75.480	        27	    1200	     5.196
  75.500	        15	    1200	     3.873
  75.520	        15	    1200	     3.873
  75.540	        18	    1200	     4.243
  75.560	        19	    1200	     4.359
  75.580	        29	    1200	     5.385
  75.600	        18	    1200	     4.243
  75.620	        24	    1200	     4.899
  75.640	        11	    1200	     3.317
  75.660	        24	    1200	     4.899
  75.680	        13	    1200	     3.606
  75.700	        16	    1200	     4.000
  75.720	        18	    1200	     4.243
  75.740	        17	    1200	     4.123
  75.760	        23	    1200	     4.796
  75.780	        22	    1200	     4.690
  75.800	        18	    1200	     4.243
  75.820	        20	    1200	     4.472
  75.840	        13	    1200	     3.606
  75.860	        21	    1200	     4.583
  75.880	        20	    1200	     4.472
  75.900	        24	    1200	     4.899
  75.920	        22	    1200	     4.690
  75.940	        26	    1200	     5.099
  75.960	        26	    1200	     5.099
  75.980	        22	    1200	     4.690
  76.000	        22	    1200	     4.690
  76.020	        25	    1200	     5.000
  76.040	        16	    1200	     4.000
  76.060	        25	    1200	     5.000
  76.080	        20	    1200	     4.472
  76.100	        24	    1200	     4.899
  76.120	        25	    1200	     5.000
  76.140	        28	    1200	     5.292
  76.160	        24	    1200	     4.899
  76.180	        29	    1200	     5.385
  76.200	        11	    1200	     3.317
  76.220	        26	    1200	     5.099
  76.240	        23	    1200	     4.796
  76.260	        20	    1200	     4.472
  76.280	        23	    1200	     4.796
  76.300	        23	    1200	     4.796
  76.320	        22	    1200	     4.690
  76.340	        29	    1200	     5.385
  76.360	        30	    1200	     5.477
  76.380	        37	    1200	     6.083
  76.400	        30	    1200	     5.477
  76.420	        32	    1200	     5.657
  76.440	        22	    1200	     4.690
  76.460	        32	    1200	     5.657
  76.480	        28	    1200	     5.292
  76.500	        37	    1200	     6.083
  76.520	        51	    1200	     7.141
  76.540	        27	    1200	     5.196
  76.560	        46	    1200	     6.782
  76.580	        52	    1200	     7.211
  76.600	        54	    1200	     7.348
  76.620	        42	    1200	     6.481
  76.640	        71	    1200	     8.426
  76.660	        53	    1200	     7.280
  76.680	        55	    1200	     7.416
  76.700	        70	    1200	     8.367
  76.720	        60	    1200	     7.746
  76.740	        79	    1200	     8.888
  76.760	        92	    1200	     9.592
  76.780	        94	    1200	     9.695
  76.800	       114	    1200	    10.677
  76.820	       113	    1200	    10.630
  76.840	       142	    1200	    11.916
  76.860	       130	    1200	    11.402
  76.880	       146	    1200	    12.083
  76.900	       160	    1200	    12.649
  76.920	       149	    1200	    12.207
  76.940	       160	    1200	    12.649
  76.960	       179	    1200	    13.379
  76.980	       198	    1200	    14.071
  77.000	       193	    1200	    13.892
  77.020	       172	    1200	    13.115
  77.040	       200	    1200	    14.142
  77.060	       209	    1200	    14.457
  77.080	       206	    1200	    14.353
  77.100	       193	    1200	    13.892
  77.120	       179	    1200	    13.379
  77.140	       180	    1200	    13.416
  77.160	       209	    1200	    14.457
  77.180	       192	    1200	    13.856
  77.200	       231	    1200	    15.199
  77.220	       194	    1200	    13.928
  77.240	       177	    1200	    13.304
  77.260	       184	    1200	    13.565
  77.280	       161	    1200	    12.689
  77.300	       189	    1200	    13.748
  77.320	       137	    1200	    11.705
  77.340	       150	    1200	    12.247
  77.360	       148	    1200	    12.166
  77.380	       130	    1200	    11.402
  77.400	       123	    1200	    11.091
  77.420	       127	    1200	    11.269
  77.440	       135	    1200	    11.619
  77.460	       111	    1200	    10.536
  77.480	       111	    1200	    10.536
  77.500	        91	    1200	     9.539
  77.520	        76	    1200	     8.718
  77.540	        69	    1200	     8.307
  77.560	        68	    1200	     8.246
  77.580	        58	    1200	     7.616
  77.600	        59	    1200	     7.681
  77.620	        63	    1200	     7.937
  77.640	        55	    1200	     7.416
  77.660	        53	    1200	     7.280
  77.680	        42	    1200	     6.481
  77.700	        65	    1200	     8.062
  77.720	        39	    1200	     6.245
  77.740	        34	    1200	     5.831
  77.760	        36	    1200	     6.000
  77.780	        45	    1200	     6.708
  77.800	        39	    1200	     6.245
  77.820	        41	    1200	     6.403
  77.840	        40	    1200	     6.325
  77.860	        23	    1200	     4.796
  77.880	        33	    1200	     5.745
  77.900	        40	    1200	     6.325
  77.920	        28	    1200	     5.292
  77.940	        32	    1200	     5.657
  77.960	        32	    1200	     5.657
  77.980	        25	    1200	     5.000
  78.000	        20	    1200	     4.472
  78.020	        27	    1200	     5.196
  78.040	        22	    1200	     4.690
  78.060	        29	    1200	     5.385
  78.080	        30	    1200	     5.477
  78.100	        19	    1200	     4.359
  78.120	        26	    1200	     5.099
  78.140	        15	    1200	     3.873
  78.160	        23	    1200	     4.796
  78.180	        29	    1200	     5.385
  78.200	        22	    1200	     4.690
  78.220	        34	    1200	     5.831
  78.240	        25	    1200	     5.000
  78.260	        26	    1200	     5.099
  78.280	        19	    1200	     4.359
  78.300	        28	    1200	     5.292
  78.320	        22	    1200	     4.690
  78.340	        28	    1200	     5.292
  78.360	        21	    1200	     4.583
  78.380	        19	    1200	     4.359
  78.400	        19	    1200	     4.359
  78.420	        28	    1200	     5.292
  78.440	        23	    1200	     4.796
  78.460	        17	    1200	     4.123
  78.480	        18	    1200	     4.243
  78.500	        12	    1200	     3.464
  78.520	        15	    1200	     3.873
  78.540	        19	    1200	     4.359
  78.560	        23	    1200	     4.796
  78.580	        24	    1200	     4.899
  78.600	        27	    1200	     5.196
  78.620	        20	    1200	     4.472
  78.640	        18	    1200	     4.243
  78.660	        19	    1200	     4.359
  78.680	        13	    1200	     3.606
  78.700	        22	    1200	     4.690
  78.720	        14	    1200	     3.742
  78.740	        18	    1200	     4.243
  78.760	        26	    1200	     5.099
  78.780	        34	    1200	     5.831
  78.800	        20	    1200	     4.472
  78.820	        21	    1200	     4.583
  78.840	        14	    1200	     3.742
  78.860	        17	    1200	     4.123
  78.880	        27	    1200	     5.196
  78.900	        21	    1200	     4.583
  78.920	        25	    1200	     5.000
  78.940	        22	    1200	     4.690
  78.960	        18	    1200	     4.243
  78.980	        19	    1200	     4.359
  79.000	        22	    1200	     4.690
  79.020	        20	    1200	     4.472
  79.040	        25	    1200	     5.000
  79.060	        20	    1200	     4.472
  79.080	        17	    1200	     4.123
  79.100	        26	    1200	     5.099
  79.120	        18	    1200	     4.243
  79.140	        18	    1200	     4.243
  79.160	        24	    1200	     4.899
  79.180	        15	    1200	     3.873
  79.200	        19	    1200	     4.359
  79.220	        15	    1200	     3.873
  79.240	         9	    1200	     3.000
  79.260	        18	    1200	     4.243
  79.280	        20	    1200	     4.472
  79.300	        20	    1200	     4.472
  79.320	        13	    1200	     3.606
  79.340	        20	    1200	     4.472
  79.360	        10	    1200	     3.162
  79.380	        13	    1200	     3.606
  79.400	        32	    1200	     5.657
  79.420	        21	    1200	     4.583
  79.440	        13	    1200	     3.606
  79.460	        20	    1200	     4.472
  79.480	        24	    1200	     4.899
  79.500	        20	    1200	     4.472
  79.520	        20	    1200	     4.472
  79.540	        27	    1200	     5.196
  79.560	        28	    1200	     5.292
  79.580	        12	    1200	     3.464
  79.600	        13	    1200	     3.606
  79.620	        17	    1200	     4.123
  79.640	        15	    1200	     3.873
  79.660	        16	    1200	     4.000
  79.680	        11	    1200	     3.317
  79.700	        23	    1200	     4.796
  79.720	        17	    1200	     4.123
  79.740	        24	    1200	     4.899
  79.760	        19	    1200	     4.359
  79.780	        12	    1200	     3.464
  79.800	        18	    1200	     4.243
  79.820	        19	    1200	     4.359
  79.840	        15	    1200	     3.873
  79.860	        16	    1200	     4.000
  79.880	        24	    1200	     4.899
  79.900	        17	    1200	     4.123
  79.920	        15	    1200	     3.873
  79.940	        15	    1200	     3.873
  79.960	        19	    1200	     4.359
  79.980	        12	    1200	     3.464
  80.000	        26	    1200	     5.099
  80.020	        20	    1200	     4.472
  80.040	        18	    1200	     4.243
  80.060	        19	    1200	     4.359
  80.080	        17	    1200	     4.123
  80.100	        13	    1200	     3.606
  80.120	        19	    1200	     4.359
  80.140	        22	    1200	     4.690
  80.160	        21	    1200	     4.583
  80.180	        14	    1200	     3.742
  80.200	        13	    1200	     3.606
  80.220	        17	    1200	     4.123
  80.240	        17	    1200	     4.123
  80.260	        22	    1200	     4.690
  80.280	        21	    1200	     4.583
  80.300	        20	    1200	     4.472
  80.320	        27	    1200	     5.196
  80.340	        18	    1200	     4.243
  80.360	        20	    1200	     4.472
  80.380	        20	    1200	     4.472
  80.400	        19	    1200	     4.359
  80.420	        21	    1200	     4.583
  80.440	        23	    1200	     4.796
  80.460	        15	    1200	     3.873
  80.480	        17	    1200	     4.123
  80.500	        20	    1200	     4.472
  80.520	        12	    1200	     3.464
  80.540	        17	    1200	     4.123
  80.560	        28	    1200	     5.292
  80.580	        13	    1200	     3.606
  80.600	        18	    1200	     4.243
  80.620	        17	    1200	     4.123
  80.640	        21	    1200	     4.583
  80.660	        15	    1200	     3.873
  80.680	        18	    1200	     4.243
  80.700	        13	    1200	     3.606
  80.720	        21	    1200	     4.583
  80.740	        13	    1200	     3.606
  80.760	        23	    1200	     4.796
  80.780	        15	    1200	     3.873
  80.800	        18	    1200	     4.243
  80.820	        25	    1200	     5.000
  80.840	        22	    1200	     4.690
  80.860	        25	    1200	     5.000
  80.880	        21	    1200	     4.583
  80.900	        21	    1200	     4.583
  80.920	        15	    1200	     3.873
  80.940	        25	    1200	     5.000
  80.960	        22	    1200	     4.690
  80.980	        16	    1200	     4.000
  81.000	        24	    1200	     4.899
  81.020	        28	    1200	     5.292
  81.040	        22	    1200	     4.690
  81.060	        16	    1200	     4.000
  81.080	        15	    1200	     3.873
  81.100	        21	    1200	     4.583
  81.120	        16	    1200	     4.000
  81.140	        22	    1200	     4.690
  81.160	        16	    1200	     4.000
  81.180	        25	    1200	     5.000
  81.200	        24	    1200	     4.899
  81.220	        22	    1200	     4.690
  81.240	        21	    1200	     4.583
  81.260	        23	    1200	     4.796
  81.280	        32	    1200	     5.657
  81.300	        26	    1200	     5.099
  81.320	        24	    1200	     4.899
  81.340	        34	    1200	     5.831
  81.360	        34	    1200	     5.831
  81.380	        45	    1200	     6.708
  81.400	        28	    1200	     5.292
  81.420	        33	    1200	     5.745
  81.440	        43	    1200	     6.557
  81.460	        36	    1200	     6.000
  81.480	        34	    1200	     5.831
  81.500	        34	    1200	     5.831
  81.520	        32	    1200	     5.657
  81.540	        40	    1200	     6.325
  81.560	        53	    1200	     7.280
  81.580	        44	    1200	     6.633
  81.600	        59	    1200	     7.681
  81.620	        45	    1200	     6.708
  81.640	        54	    1200	     7.348
  81.660	        42	    1200	     6.481
  81.680	        55	    1200	     7.416
  81.700	        49	    1200	     7.000
  81.720	        45	    1200	     6.708
  81.740	        57	    1200	     7.550
  81.760	        57	    1200	     7.550
  81.780	        49	    1200	     7.000
  81.800	        56	    1200	     7.483
  81.820	        51	    1200	     7.141
  81.840	        48	    1200	     6.928
  81.860	        56	    1200	     7.483
  81.880	        54	    1200	     7.348
  81.900	        49	    1200	     7.000
  81.920	        49	    1200	     7.000
  81.940	        44	    1200	     6.633
  81.960	        34	    1200	     5.831
  81.980	        51	    1200	     7.141
  82.000	        53	    1200	     7.280
  82.020	        53	    1200	     7.280
  82.040	        45	    1200	     6.708
  82.060	        53	    1200	     7.280
  82.080	        63	    1200	     7.937
  82.100	        52	    1200	     7.211
  82.120	        48	    1200	     6.928
  82.140	        59	    1200	     7.681
  82.160	        58	    1200	     7.616
  82.180	        54	    1200	     7.348
  82.200	        62	    1200	     7.874
  82.220	        67	    1200	     8.185
  82.240	        72	    1200	     8.485
  82.260	        64	    1200	     8.000
  82.280	        60	    1200	     7.746
  82.300	        73	    1200	     8.544
  82.320	        63	    1200	     7.937
  82.340	        60	    1200	     7.746
  82.360	        51	    1200	     7.141
  82.380	        52	    1200	     7.211
  82.400	        50	    1200	     7.071
  82.420	        52	    1200	     7.211
  82.440	        51	    1200	     7.141
  82.460	        54	    1200	     7.348
  82.480	        70	    1200	     8.367
  82.500	        43	    1200	     6.557
  82.520	        59	    1200	     7.681
  82.540	        48	    1200	     6.928
  82.560	        54	    1200	     7.348
  82.580	        48	    1200	     6.928
  82.600	        43	    1200	     6.557
  82.620	        58	    1200	     7.616
  82.640	        51	    1200	     7.141
  82.660	        63	    1200	     7.937
  82.680	        47	    1200	     6.856
  82.700	        48	    1200	     6.928
  82.720	        52	    1200	     7.211
  82.740	        53	    1200	     7.280
  82.760	        42	    1200	     6.481
  82.780	        52	    1200	     7.211
  82.800	        45	    1200	     6.708
  82.820	        45	    1200	     6.708
  82.840	        62	    1200	     7.874
  82.860	        46	    1200	     6.782
  82.880	        59	    1200	     7.681
  82.900	        45	    1200	     6.708
  82.920	        48	    1200	     6.928
  82.940	        47	    1200	     6.856
  82.960	        56	    1200	     7.483
  82.980	        46	    1200	     6.782
  83.000	        53	    1200	     7.280
  83.020	        53	    1200	     7.280
  83.040	        52	    1200	     7.211
  83.060	        50	    1200	     7.071
  83.080	        47	    1200	     6.856
  83.100	        39	    1200	     6.245
  83.120	        47	    1200	     6.856
  83.140	        46	    1200	     6.782
  83.160	        35	    1200	     5.916
  83.180	        40	    1200	     6.325
  83.200	        40	    1200	     6.325
  83.220	        45	    1200	     6.708
  83.240	        45	    1200	     6.708
  83.260	        38	    1200	     6.164
  83.280	        34	    1200	     5.831
  83.300	        39	    1200	     6.245
  83.320	        25	    1200	     5.000
  83.340	        29	    1200	     5.385
  83.360	        41	    1200	     6.403
  83.380	        33	    1200	     5.745
  83.400	        31	    1200	     5.568
  83.420	        30	    1200	     5.477
  83.440	        38	    1200	     6.164
  83.460	        38	    1200	     6.164
  83.480	        36	    1200	     6.000
  83.500	        34	    1200	     5.831
  83.520	        35	    1200	     5.916
  83.540	        28	    1200	     5.292
  83.560	        25	    1200	     5.000
  83.580	        28	    1200	     5.292
  83.600	        26	    1200	     5.099
  83.620	        28	    1200	     5.292
  83.640	        27	    1200	     5.196
  83.660	        28	    1200	     5.292
  83.680	        36	    1200	     6.000
  83.700	        29	    1200	     5.385
  83.720	        16	    1200	     4.000
  83.740	        27	    1200	     5.196
  83.760	        26	    1200	     5.099
  83.780	        20	    1200	     4.472
  83.800	        21	    1200	     4.583
  83.820	        29	    1200	     5.385
  83.840	        25	    1200	     5.000
  83.860	        23	    1200	     4.796
  83.880	        21	    1200	     4.583
  83.900	        22	    1200	     4.690
  83.920	        23	    1200	     4.796
  83.940	        24	    1200	     4.899
  83.960	        17	    1200	     4.123
  83.980	        24	    1200	     4.899
  84.000	        36	    1200	     6.000
  84.020	        17	    1200	     4.123
  84.040	        24	    1200	     4.899
  84.060	        19	    1200	     4.359
  84.080	        27	    1200	     5.196
  84.100	        19	    1200	     4.359
  84.120	        21	    1200	     4.583
  84.140	        25	    1200	     5.000
  84.160	        20	    1200	     4.472
  84.180	        31	    1200	     5.568
  84.200	        13	    1200	     3.606
  84.220	        20	    1200	     4.472
  84.240	        21	    1200	     4.583
  84.260	        26	    1200	     5.099
  84.280	        21	    1200	     4.583
  84.300	        20	    1200	     4.472
  84.320	        18	    1200	     4.243
  84.340	        15	    1200	     3.873
  84.360	        24	    1200	     4.899
  84.380	        25	    1200	     5.000
  84.400	        23	    1200	     4.796
  84.420	        35	    1200	     5.916
  84.440	        16	    1200	     4.000
  84.460	        31	    1200	     5.568
  84.480	        22	    1200	     4.690
  84.500	        37	    1200	     6.083
  84.520	        31	    1200	     5.568
  84.540	        30	    1200	     5.477
  84.560	        25	    1200	     5.000
  84.580	        24	    1200	     4.899
  84.600	        24	    1200	     4.899
  84.620	        29	    1200	     5.385
  84.640	        32	    1200	     5.657
  84.660	        29	    1200	     5.385
  84.680	        52	    1200	     7.211
  84.700	        41	    1200	     6.403
  84.720	        38	    1200	     6.164
  84.740	        44	    1200	     6.633
  84.760	        43	    1200	     6.557
  84.780	        49	    1200	     7.000
  84.800	        51	    1200	     7.141
  84.820	        39	    1200	     6.245
  84.840	        50	    1200	     7.071
  84.860	        51	    1200	     7.141
  84.880	        45	    1200	     6.708
  84.900	        45	    1200	     6.708
  84.920	        53	    1200	     7.280
  84.940	        53	    1200	     7.280
  84.960	        61	    1200	     7.810
  84.980	        49	    1200	     7.000
  85.000	        46	    1200	     6.782
  85.020	        48	    1200	     6.928
  85.040	        60	    1200	     7.746
  85.060	        41	    1200	     6.403
  85.080	        53	    1200	     7.280
  85.100	        45	    1200	     6.708
  85.120	        38	    1200	     6.164
  85.140	        48	    1200	     6.928
  85.160	        40	    1200	     6.325
  85.180	        54	    1200	     7.348
  85.200	        33	    1200	     5.745
  85.220	        38	    1200	     6.164
  85.240	        38	    1200	     6.164
  85.260	        41	    1200	     6.403
  85.280	        50	    1200	     7.071
  85.300	        35	    1200	     5.916
  85.320	        29	    1200	     5.385
  85.340	        37	    1200	     6.083
  85.360	        36	    1200	     6.000
  85.380	        37	    1200	     6.083
  85.400	        30	    1200	     5.477
  85.420	        26	    1200	     5.099
  85.440	        30	    1200	     5.477
  85.460	        37	    1200	     6.083
  85.480	        27	    1200	     5.196
  85.500	        23	    1200	     4.796
  85.520	        38	    1200	     6.164
  85.540	        27	    1200	     5.196
  85.560	        32	    1200	     5.657
  85.580	        36	    1200	     6.000
  85.600	        29	    1200	     5.385
  85.620	        34	    1200	     5.831
  85.640	        37	    1200	     6.083
  85.660	        26	    1200	     5.099
  85.680	        32	    1200	     5.657
  85.700	        33	    1200	     5.745
  85.720	        38	    1200	     6.164
  85.740	        37	    1200	     6.083
  85.760	        34	    1200	     5.831
  85.780	        34	    1200	     5.831
  85.800	        25	    1200	     5.000
  85.820	        44	    1200	     6.633
  85.840	        43	    1200	     6.557
  85.860	        43	    1200	     6.557
  85.880	        48	    1200	     6.928
  85.900	        54	    1200	     7.348
  85.920	        42	    1200	     6.481
  85.940	        55	    1200	     7.416
  85.960	        50	    1200	     7.071
  85.980	        54	    1200	     7.348
  86.000	        71	    1200	     8.426
  86.020	        54	    1200	     7.348
  86.040	        67	    1200	     8.185
  86.060	        76	    1200	     8.718
  86.080	        70	    1200	     8.367
  86.100	        74	    1200	     8.602
  86.120	        58	    1200	     7.616
  86.140	        64	    1200	     8.000
  86.160	        56	    1200	     7.483
  86.180	        63	    1200	     7.937
  86.200	        60	    1200	     7.746
  86.220	        52	    1200	     7.211
  86.240	        50	    1200	     7.071
  86.260	        66	    1200	     8.124
  86.280	        53	    1200	     7.280
  86.300	        54	    1200	     7.348
  86.320	        51	    1200	     7.141
  86.340	        56	    1200	     7.483
  86.360	        56	    1200	     7.483
  86.380	        45	    1200	     6.708
  86.400	        41	    1200	     6.403
  86.420	        40	    1200	     6.325
  86.440	        36	    1200	     6.000
  86.460	        34	    1200	     5.831
  86.480	        36	    1200	     6.000
  86.500	        24	    1200	     4.899
  86.520	        39	    1200	     6.245
  86.540	        28	    1200	     5.292
  86.560	        39	    1200	     6.245
  86.580	        36	    1200	     6.000
  86.600	        19	    1200	     4.359
  86.620	        37	    1200	     6.083
  86.640	        25	    1200	     5.000
  86.660	        29	    1200	     5.385
  86.680	        26	    1200	     5.099
  86.700	        24	    1200	     4.899
  86.720	        20	    1200	     4.472
  86.740	        28	    1200	     5.292
  86.760	        21	    1200	     4.583
  86.780	        20	    1200	     4.472
  86.800	        16	    1200	     4.000
  86.820	        30	    1200	     5.477
  86.840	        28	    1200	     5.292
  86.860	        30	    1200	     5.477
  86.880	        21	    1200	     4.583
  86.900	        20	    1200	     4.472
  86.920	        27	    1200	     5.196
  86.940	        21	    1200	     4.583
  86.960	        25	    1200	     5.000
  86.980	        18	    1200	     4.243
  87.000	        17	    1200	     4.123
  87.020	        25	    1200	     5.000
  87.040	        12	    1200	     3.464
  87.060	        24	    1200	     4.899
  87.080	        14	    1200	     3.742
  87.100	        17	    1200	     4.123
  87.120	        23	    1200	     4.796
  87.140	        22	    1200	     4.690
  87.160	        12	    1200	     3.464
  87.180	        21	    1200	     4.583
  87.200	        17	    1200	     4.123
  87.220	        17	    1200	     4.123
  87.240	        16	    1200	     4.000
  87.260	        19	    1200	     4.359
  87.280	        22	    1200	     4.690
  87.300	        12	    1200	     3.464
  87.320	        23	    1200	     4.796
  87.340	        21	    1200	     4.583
  87.360	        16	    1200	     4.000
  87.380	        18	    1200	     4.243
  87.400	        19	    1200	     4.359
  87.420	        22	    1200	     4.690
  87.440	        23	    1200	     4.796
  87.460	        10	    1200	     3.162
  87.480	        14	    1200	     3.742
  87.500	        19	    1200	     4.359
  87.520	        15	    1200	     3.873
  87.540	        14	    1200	     3.742
  87.560	        18	    1200	     4.243
  87.580	        18	    1200	     4.243
  87.600	        20	    1200	     4.472
  87.620	        15	    1200	     3.873
  87.640	        12	    1200	     3.464
  87.660	        23	    1200	     4.796
  87.680	        22	    1200	     4.690
  87.700	        15	    1200	     3.873
  87.720	        20	    1200	     4.472
  87.740	        13	    1200	     3.606
  87.760	        18	    1200	     4.243
  87.780	        15	    1200	     3.873
  87.800	        18	    1200	     4.243
  87.820	        16	    1200	     4.000
  87.840	        18	    1200	     4.243
  87.860	        10	    1200	     3.162
  87.880	        24	    1200	     4.899
  87.900	        21	    1200	     4.583
  87.920	        25	    1200	     5.000
  87.940	        17	    1200	     4.123
  87.960	        19	    1200	     4.359
  87.980	        12	    1200	     3.464
  88.000	        25	    1200	     5.000
  88.020	        20	    1200	     4.472
  88.040	        35	    1200	     5.916
  88.060	        17	    1200	     4.123
  88.080	        18	    1200	     4.243
  88.100	        16	    1200	     4.000
  88.120	        12	    1200	     3.464
  88.140	        24	    1200	     4.899
  88.160	        11	    1200	     3.317
  88.180	        22	    1200	     4.690
  88.200	        21	    1200	     4.583
  88.220	        13	    1200	     3.606
  88.240	        22	    1200	     4.690
  88.260	        14	    1200	     3.742
  88.280	        10	    1200	     3.162
  88.300	        14	    1200	     3.742
  88.320	        30	    1200	     5.477
  88.340	        18	    1200	     4.243
  88.360	        18	    1200	     4.243
  88.380	        26	    1200	     5.099
  88.400	        14	    1200	     3.742
  88.420	        14	    1200	     3.742
  88.440	        21	    1200	     4.583
  88.460	        20	    1200	     4.472
  88.480	        19	    1200	     4.359
  88.500	        22	    1200	     4.690
  88.520	        12	    1200	     3.464
  88.540	        14	    1200	     3.742
  88.560	        15	    1200	     3.873
  88.580	        12	    1200	     3.464
  88.600	        23	    1200	     4.796
  88.620	        17	    1200	     4.123
  88.640	        13	    1200	     3.606
  88.660	        19	    1200	     4.359
  88.680	        25	    1200	     5.000
  88.700	        20	    1200	     4.472
  88.720	        25	    1200	     5.000
  88.740	        13	    1200	     3.606
  88.760	        13	    1200	     3.606
  88.780	        14	    1200	     3.742
  88.800	        19	    1200	     4.359
  88.820	        11	    1200	     3.317
  88.840	        19	    1200	     4.359
  88.860	        17	    1200	     4.123
  88.880	        20	    1200	     4.472
  88.900	        18	    1200	     4.243
  88.920	        19	    1200	     4.359
  88.940	        16	    1200	     4.000
  88.960	        22	    1200	     4.690
  88.980	        16	    1200	     4.000
  89.000	        20	    1200	     4.472
  89.020	        18	    1200	     4.243
  89.040	        18	    1200	     4.243
  89.060	        19	    1200	     4.359
  89.080	        15	    1200	     3.873
  89.100	        14	    1200	     3.742
  89.120	        20	    1200	     4.472
  89.140	        12	    1200	     3.464
  89.160	         8	    1200	     2.828
  89.180	        21	    1200	     4.583
  89.200	        14	    1200	     3.742
  89.220	        11	    1200	     3.317
  89.240	        15	    1200	     3.873
  89.260	         8	    1200	     2.828
  89.280	        23	    1200	     4.796
  89.300	        18	    1200	     4.243
  89.320	        12	    1200	     3.464
  89.340	        17	    1200	     4.123
  89.360	        17	    1200	     4.123
  89.380	        23	    1200	     4.796
  89.400	        14	    1200	     3.742
  89.420	        18	    1200	     4.243
  89.440	        15	    1200	     3.873
  89.460	        19	    1200	     4.359
  89.480	        19	    1200	     4.359
  89.500	        23	    1200	     4.796
  89.520	        23	    1200	     4.796
  89.540	        15	    1200	     3.873
  89.560	        20	    1200	     4.472
  89.580	        17	    1200	     4.123
  89.600	        15	    1200	     3.873
  89.620	        13	    1200	     3.606
  89.640	        21	    1200	     4.583
  89.660	         8	    1200	     2.828
  89.680	        20	    1200	     4.472
  89.700	        17	    1200	     4.123
  89.720	        12	    1200	     3.464
  89.740	        19	    1200	     4.359
  89.760	        23	    1200	     4.796
  89.780	        18	    1200	     4.243
  89.800	        16	    1200	     4.000
  89.820	        14	    1200	     3.742
  89.840	        16	    1200	     4.000
  89.860	        24	    1200	     4.899
  89.880	        20	    1200	     4.472
  89.900	        13	    1200	     3.606
  89.920	        16	    1200	     4.000
  89.940	        29	    1200	     5.385
  89.960	        19	    1200	     4.359
  89.980	        14	    1200	     3.742
  90.000	        21	    1200	     4.583
