*FILE_COMMENT ""
*FILE_MD5 ""
*FILE_MEMO ""
*FILE_OPERATOR "Administrator"
*FILE_PACKAGE_NAME ""
*FILE_PART_ID "GeneralMeasurement(BB)"
*FILE_SAMPLE "STF6_50H2_50H2O_72Hr_Dilute"
*FILE_SYSTEM_NAME "SmartLab"
*FILE_TYPE "RAS_RAW"
*FILE_USERGROUP "Administrators"
*FILE_VERSION "1"
*HW_ATTACHMENT_ID "ATT0033"
*HW_ATTACHMENT_NAME "ASC6_Reflection"
*HW_ATTACHMENT_NAME_INTERNAL "ASC6_Reflection"
*HW_COUNTER_ID-0 "CUT0051"
*HW_COUNTER_ID-2 "CMC0020"
*HW_COUNTER_MONOCHRO_ID "CMC0020"
*HW_COUNTER_MONOCHRO_NAME "None"
*HW_COUNTER_MONOCHRO_NAME_INTERNAL "None"
*HW_COUNTER_NAME_INTERNAL "HyPix3000(H)"
*HW_COUNTER_NAME-0 "HyPix3000(H)"
*HW_COUNTER_NAME-1 "None"
*HW_COUNTER_NAME-2 "None"
*HW_COUNTER_PIXEL_SIZE "0.1"
*HW_COUNTER_SELECT_NAME "HyPix3000(H)"
*HW_EXTERNAL_CONTROLLER_NAME "None"
*HW_EXTERNAL_CONTROLLER_NAME_INTERNAL "None"
*HW_GONIOMETER_ID "GON0022"
*HW_GONIOMETER_NAME "StandardInplane"
*HW_GONIOMETER_NAME_INTERNAL "StandardInplaneEnc"
*HW_GONIOMETER_RADIUS-0 "90.0"
*HW_GONIOMETER_RADIUS-1 "114.0"
*HW_GONIOMETER_RADIUS-2 "190.0"
*HW_GONIOMETER_RADIUS-3 "300.0"
*HW_GONIOMETER_RADIUS-4 "187.0"
*HW_GONIOMETER_RADIUS-5 "300.0"
*HW_GONIOMETER_RADIUS-6 "113.0"
*HW_GONIOMETER_RADIUS-7 "331.0"
*HW_I_CBO_ID "CBO0021"
*HW_I_CBO_NAME "CBO"
*HW_I_CBO_NAME_INTERNAL "CBO"
*HW_I_MONOCHRO_ID "ISO0021"
*HW_I_MONOCHRO_NAME "IPS_adaptor"
*HW_I_MONOCHRO_NAME_INTERNAL "IPS_adaptor"
*HW_I_OPT_ID-1 "CBO0021"
*HW_I_OPT_ID-2 "ISL0021"
*HW_I_PRIMARY_NAME_INTERNAL "Standard"
*HW_I_SLIT_ID "ISL0021"
*HW_I_SLIT_NAME "Auto"
*HW_I_SLIT_NAME_INTERNAL "Auto"
*HW_R_ATTENUATER_AUTOMODE "0"
*HW_R_ATTENUATER_ID "ATN0020"
*HW_R_ATTENUATER_NAME "No_unit"
*HW_R_ATTENUATOR_NAME_INTERNAL "No_unit"
*HW_R_OPT_ID-0 "RSS0022"
*HW_R_OPT_ID-1 "RCR0022"
*HW_R_OPT_ID-2 "RSO0021"
*HW_R_OPT_ID-3 "RRS0022"
*HW_R_OPT_ID-4 "ATN0020"
*HW_R_ROD_ID "RCR0022"
*HW_R_ROD_NAME "ROD_adaptor"
*HW_R_ROD_NAME_INTERNAL "ROD_adaptor"
*HW_R_RPS_ID "RSO0021"
*HW_R_RPS_NAME "RPS_adaptor"
*HW_R_RPS_NAME_INTERNAL "RPS_adaptor"
*HW_R_RS_ID "RRS0022"
*HW_R_RS_NAME "Virtual"
*HW_R_RS_NAME_INTERNAL "Virtual"
*HW_R_SS_ID "RSS0022"
*HW_R_SS_NAME "Auto_Zr"
*HW_R_SS_NAME_INTERNAL "Auto_Zr"
*HW_ROBOT_NAME "No_unit"
*HW_ROBOT_NAME_INTERNAL "No_unit"
*HW_SAMPLE_CAMERA_NAME "SampleCamera_Inp"
*HW_SAMPLE_CAMERA_NAME_INTERNAL "SampleCamera_Inp"
*HW_SAMPLE_HOLDER_ID "SMP0023"
*HW_SAMPLE_HOLDER_NAME "Z"
*HW_SAMPLE_HOLDER_NAME_INTERNAL "Z"
*HW_SAMPLE_NAME "ReflectionForASC"
*HW_SAMPLE_NAME_INTERNAL "ReflectionForASC"
*HW_SAMPLE_PLATE_NAME "None"
*HW_SAMPLE_PLATE_NAME_INTERNAL "None"
*HW_SAMPLE_SPACER_NAME "None"
*HW_SAMPLE_SPACER_NAME_INTERNAL "None"
*HW_USERINFO_CATALOG_NO ""
*HW_USERINFO_INSTRUMENT_ID ""
*HW_USERINFO_INSTRUMENT_NAME ""
*HW_USERINFO_INSTRUMENT_NO ""
*HW_USERINFO_MODEL ""
*HW_USERINFO_ORDER_NO ""
*HW_USERINFO_SERIAL_NO ""
*HW_USERINFO_VERIFY_INSTRUMENT_ID "00-07-fe-01-04-5e"
*HW_VER_RCD_COUNTER_UNIT "1.0.1"
*HW_VER_RCD_CPU "3.2.2"
*HW_VER_RCD_FPGA "1.2.3"
*HW_VER_RCD_GONIO_UNIT "6.2.0"
*HW_VER_RCD_INCIDENT_UNIT "6.2.0"
*HW_VER_RCD_RECEIVING_UNIT "6.1.1"
*HW_VER_RCD_TYPE "RINC"
*HW_VER_XGC_CPU "3.2.2"
*HW_VER_XGC_CW "1.3.2"
*HW_VER_XGC_HV "1.3.2"
*HW_VER_XGC_RS1 "1.3.2"
*HW_VER_XGC_RS2 "N/A"
*HW_VER_XGC_RT "N/A"
*HW_VER_XGC_TYPE "RINC"
*HW_XG_CURRENT_UNIT "mA"
*HW_XG_FOCUS "0.4mm x 8mm"
*HW_XG_FOCUS_TYPE "Fine"
*HW_XG_TARGET_ATOMIC_NUMBER "29"
*HW_XG_TARGET_NAME "Cu"
*HW_XG_TYPE "Hermetic"
*HW_XG_VOLTAGE_UNIT "kV"
*HW_XG_WAVE_LENGTH_ALPHA1 "1.540593"
*HW_XG_WAVE_LENGTH_ALPHA2 "1.544414"
*HW_XG_WAVE_LENGTH_BETA "1.392246"
*HW_XG_WAVE_LENGTH_UNIT "Angstrom"
*MEAS_COND_AXIS_NAME_INTERNAL-0 "ThetaS"
*MEAS_COND_AXIS_NAME_INTERNAL-1 "ThetaD"
*MEAS_COND_AXIS_NAME_INTERNAL-10 "PrimaryGeometry"
*MEAS_COND_AXIS_NAME_INTERNAL-100 "CounterMonochromatorKind"
*MEAS_COND_AXIS_NAME_INTERNAL-11 "PrimaryMirrorType"
*MEAS_COND_AXIS_NAME_INTERNAL-12 "CBOType"
*MEAS_COND_AXIS_NAME_INTERNAL-13 "CBO-M"
*MEAS_COND_AXIS_NAME_INTERNAL-14 "CBO"
*MEAS_COND_AXIS_NAME_INTERNAL-15 "SelectionSlitType"
*MEAS_COND_AXIS_NAME_INTERNAL-16 "IncidentSollerSlit"
*MEAS_COND_AXIS_NAME_INTERNAL-17 "ISSType"
*MEAS_COND_AXIS_NAME_INTERNAL-18 "IncidentSlitBox"
*MEAS_COND_AXIS_NAME_INTERNAL-19 "IncidentSlitBox"
*MEAS_COND_AXIS_NAME_INTERNAL-2 "TwoTheta"
*MEAS_COND_AXIS_NAME_INTERNAL-20 "IncidentSlitBox"
*MEAS_COND_AXIS_NAME_INTERNAL-21 "Zs"
*MEAS_COND_AXIS_NAME_INTERNAL-22 "IncidentAxdSlit"
*MEAS_COND_AXIS_NAME_INTERNAL-23 "IncidentAxdSlit"
*MEAS_COND_AXIS_NAME_INTERNAL-24 "IncidentAxdSlit"
*MEAS_COND_AXIS_NAME_INTERNAL-25 "Z"
*MEAS_COND_AXIS_NAME_INTERNAL-26 "DirectBeamStop"
*MEAS_COND_AXIS_NAME_INTERNAL-27 "KnifeEdge"
*MEAS_COND_AXIS_NAME_INTERNAL-28 "Beta"
*MEAS_COND_AXIS_NAME_INTERNAL-29 "Changer"
*MEAS_COND_AXIS_NAME_INTERNAL-3 "Omega"
*MEAS_COND_AXIS_NAME_INTERNAL-30 "ReceivingSlitBox1"
*MEAS_COND_AXIS_NAME_INTERNAL-31 "ReceivingSlitBox1"
*MEAS_COND_AXIS_NAME_INTERNAL-32 "ReceivingSlitBox1"
*MEAS_COND_AXIS_NAME_INTERNAL-33 "Zr"
*MEAS_COND_AXIS_NAME_INTERNAL-34 "Filter"
*MEAS_COND_AXIS_NAME_INTERNAL-35 "PSA"
*MEAS_COND_AXIS_NAME_INTERNAL-36 "ReceivingSollerSlit"
*MEAS_COND_AXIS_NAME_INTERNAL-37 "ReceivingSlitBox2"
*MEAS_COND_AXIS_NAME_INTERNAL-38 "ReceivingSlitBox2"
*MEAS_COND_AXIS_NAME_INTERNAL-39 "ReceivingSlitBox2"
*MEAS_COND_AXIS_NAME_INTERNAL-4 "TwoThetaTheta"
*MEAS_COND_AXIS_NAME_INTERNAL-40 "ModuleSensorType"
*MEAS_COND_AXIS_NAME_INTERNAL-41 "GainMode"
*MEAS_COND_AXIS_NAME_INTERNAL-42 "PHA"
*MEAS_COND_AXIS_NAME_INTERNAL-43 "DetectorBeamStop"
*MEAS_COND_AXIS_NAME_INTERNAL-44 "DetectorFilter"
*MEAS_COND_AXIS_NAME_INTERNAL-45 "DedicatedHolder"
*MEAS_COND_AXIS_NAME_INTERNAL-46 "Target_TargetTime"
*MEAS_COND_AXIS_NAME_INTERNAL-47 "Target_XrayOnTime"
*MEAS_COND_AXIS_NAME_INTERNAL-48 "Target_HVGreaseUpTime"
*MEAS_COND_AXIS_NAME_INTERNAL-49 "Target_IG"
*MEAS_COND_AXIS_NAME_INTERNAL-5 "TwoThetaOmega"
*MEAS_COND_AXIS_NAME_INTERNAL-50 "Target_GP"
*MEAS_COND_AXIS_NAME_INTERNAL-51 "Target_FC"
*MEAS_COND_AXIS_NAME_INTERNAL-52 "HVPS_Bias"
*MEAS_COND_AXIS_NAME_INTERNAL-53 "HVPS_HVPSTime"
*MEAS_COND_AXIS_NAME_INTERNAL-54 "HVPS_Type1Time"
*MEAS_COND_AXIS_NAME_INTERNAL-55 "HVPS_Type2Time"
*MEAS_COND_AXIS_NAME_INTERNAL-56 "HVPS_Type3Time"
*MEAS_COND_AXIS_NAME_INTERNAL-57 "CW_IERTime"
*MEAS_COND_AXIS_NAME_INTERNAL-58 "CW_WaterHose"
*MEAS_COND_AXIS_NAME_INTERNAL-59 "CW_CoolingWater"
*MEAS_COND_AXIS_NAME_INTERNAL-6 "OmegaTwoTheta"
*MEAS_COND_AXIS_NAME_INTERNAL-60 "CW_ECTime"
*MEAS_COND_AXIS_NAME_INTERNAL-61 "CW_Flow1"
*MEAS_COND_AXIS_NAME_INTERNAL-62 "CW_Temperature1"
*MEAS_COND_AXIS_NAME_INTERNAL-63 "CW_Pressure1"
*MEAS_COND_AXIS_NAME_INTERNAL-64 "CW_PressureIn"
*MEAS_COND_AXIS_NAME_INTERNAL-65 "CW_PressureOut"
*MEAS_COND_AXIS_NAME_INTERNAL-66 "CW_Flow2"
*MEAS_COND_AXIS_NAME_INTERNAL-67 "CW_Temperature2"
*MEAS_COND_AXIS_NAME_INTERNAL-68 "CW_Pressure2"
*MEAS_COND_AXIS_NAME_INTERNAL-69 "RE_EnclosureTemp"
*MEAS_COND_AXIS_NAME_INTERNAL-7 "TwoThetaChi"
*MEAS_COND_AXIS_NAME_INTERNAL-70 "RE_EnclosureHummidity"
*MEAS_COND_AXIS_NAME_INTERNAL-71 "RE_CabinetTemp"
*MEAS_COND_AXIS_NAME_INTERNAL-72 "RE_RPTemp"
*MEAS_COND_AXIS_NAME_INTERNAL-73 "RE_ShutterAXrayOnTime"
*MEAS_COND_AXIS_NAME_INTERNAL-74 "RE_ShutterATimes"
*MEAS_COND_AXIS_NAME_INTERNAL-75 "RE_ShutterAOpenCloseTime"
*MEAS_COND_AXIS_NAME_INTERNAL-76 "RE_ShutterACloseOpenTime"
*MEAS_COND_AXIS_NAME_INTERNAL-77 "RE_ShutterBXrayOnTime"
*MEAS_COND_AXIS_NAME_INTERNAL-78 "RE_ShutterBTimes"
*MEAS_COND_AXIS_NAME_INTERNAL-79 "RE_ShutterBOpenCloseTime"
*MEAS_COND_AXIS_NAME_INTERNAL-8 "GonioDirectBeamStop"
*MEAS_COND_AXIS_NAME_INTERNAL-80 "RE_ShutterBCloseOpenTime"
*MEAS_COND_AXIS_NAME_INTERNAL-81 "RE_XrayWarningRamp"
*MEAS_COND_AXIS_NAME_INTERNAL-82 "RE_ShutterAInstallation"
*MEAS_COND_AXIS_NAME_INTERNAL-83 "RE_ShutterARamp"
*MEAS_COND_AXIS_NAME_INTERNAL-84 "RE_ShutterBInstallation"
*MEAS_COND_AXIS_NAME_INTERNAL-85 "RE_ShutterBRamp"
*MEAS_COND_AXIS_NAME_INTERNAL-86 "RE_ExtShutterCLS"
*MEAS_COND_AXIS_NAME_INTERNAL-87 "RE_ExtXrayOFF"
*MEAS_COND_AXIS_NAME_INTERNAL-88 "RE_ExtSafetyCircuit"
*MEAS_COND_AXIS_NAME_INTERNAL-89 "Version_CPU"
*MEAS_COND_AXIS_NAME_INTERNAL-9 "Ts"
*MEAS_COND_AXIS_NAME_INTERNAL-90 "Version_RS1"
*MEAS_COND_AXIS_NAME_INTERNAL-91 "Version_RS2"
*MEAS_COND_AXIS_NAME_INTERNAL-92 "Version_HV"
*MEAS_COND_AXIS_NAME_INTERNAL-93 "Version_CW"
*MEAS_COND_AXIS_NAME_INTERNAL-94 "Version_RT"
*MEAS_COND_AXIS_NAME_INTERNAL-95 "Axis_GoniometerGreaseUp"
*MEAS_COND_AXIS_NAME_INTERNAL-96 "Lens"
*MEAS_COND_AXIS_NAME_INTERNAL-97 "IncidentPrimary"
*MEAS_COND_AXIS_NAME_INTERNAL-98 "IncidentMonochromator"
*MEAS_COND_AXIS_NAME_INTERNAL-99 "ReceivingOptics"
*MEAS_COND_AXIS_NAME-0 "ThetaS"
*MEAS_COND_AXIS_NAME-1 "ThetaD"
*MEAS_COND_AXIS_NAME-10 "PrimaryGeometry"
*MEAS_COND_AXIS_NAME-100 "CounterMonochromatorKind"
*MEAS_COND_AXIS_NAME-11 "PrimaryMirrorType"
*MEAS_COND_AXIS_NAME-12 "CBOType"
*MEAS_COND_AXIS_NAME-13 "CBO-M"
*MEAS_COND_AXIS_NAME-14 "CBO"
*MEAS_COND_AXIS_NAME-15 "SelectionSlitType"
*MEAS_COND_AXIS_NAME-16 "IncidentSollerSlit"
*MEAS_COND_AXIS_NAME-17 "ISSType"
*MEAS_COND_AXIS_NAME-18 "IncidentSlitBox"
*MEAS_COND_AXIS_NAME-19 "IncidentSlitBox-_Axis"
*MEAS_COND_AXIS_NAME-2 "TwoTheta"
*MEAS_COND_AXIS_NAME-20 "SlitDS"
*MEAS_COND_AXIS_NAME-21 "Zs"
*MEAS_COND_AXIS_NAME-22 "IncidentAxdSlit"
*MEAS_COND_AXIS_NAME-23 "LLS"
*MEAS_COND_AXIS_NAME-24 "DHLSlit"
*MEAS_COND_AXIS_NAME-25 "Z"
*MEAS_COND_AXIS_NAME-26 "DirectBeamStop"
*MEAS_COND_AXIS_NAME-27 "KnifeEdge"
*MEAS_COND_AXIS_NAME-28 "Beta"
*MEAS_COND_AXIS_NAME-29 "Changer"
*MEAS_COND_AXIS_NAME-3 "Omega"
*MEAS_COND_AXIS_NAME-30 "ReceivingSlitBox1"
*MEAS_COND_AXIS_NAME-31 "ReceivingSlitBox1-_Axis"
*MEAS_COND_AXIS_NAME-32 "SlitSS"
*MEAS_COND_AXIS_NAME-33 "Zr"
*MEAS_COND_AXIS_NAME-34 "Filter"
*MEAS_COND_AXIS_NAME-35 "PSA"
*MEAS_COND_AXIS_NAME-36 "ReceivingSollerSlit"
*MEAS_COND_AXIS_NAME-37 "ReceivingSlitBox2"
*MEAS_COND_AXIS_NAME-38 "ReceivingSlitBox2-_Axis"
*MEAS_COND_AXIS_NAME-39 "SlitRS"
*MEAS_COND_AXIS_NAME-4 "TwoThetaTheta"
*MEAS_COND_AXIS_NAME-40 "ModuleSensorType"
*MEAS_COND_AXIS_NAME-41 "GainMode"
*MEAS_COND_AXIS_NAME-42 "PHA"
*MEAS_COND_AXIS_NAME-43 "DetectorBeamStop"
*MEAS_COND_AXIS_NAME-44 "DetectorFilter"
*MEAS_COND_AXIS_NAME-45 "DedicatedHolder"
*MEAS_COND_AXIS_NAME-46 "Target_TargetTime"
*MEAS_COND_AXIS_NAME-47 "Target_XrayOnTime"
*MEAS_COND_AXIS_NAME-48 "Target_HVGreaseUpTime"
*MEAS_COND_AXIS_NAME-49 "Target_IG"
*MEAS_COND_AXIS_NAME-5 "TwoThetaOmega"
*MEAS_COND_AXIS_NAME-50 "Target_GP"
*MEAS_COND_AXIS_NAME-51 "Target_FC"
*MEAS_COND_AXIS_NAME-52 "HVPS_Bias"
*MEAS_COND_AXIS_NAME-53 "HVPS_HVPSTime"
*MEAS_COND_AXIS_NAME-54 "HVPS_Type1Time"
*MEAS_COND_AXIS_NAME-55 "HVPS_Type2Time"
*MEAS_COND_AXIS_NAME-56 "HVPS_Type3Time"
*MEAS_COND_AXIS_NAME-57 "CW_IERTime"
*MEAS_COND_AXIS_NAME-58 "CW_WaterHose"
*MEAS_COND_AXIS_NAME-59 "CW_CoolingWater"
*MEAS_COND_AXIS_NAME-6 "OmegaTwoTheta"
*MEAS_COND_AXIS_NAME-60 "CW_ECTime"
*MEAS_COND_AXIS_NAME-61 "CW_Flow1"
*MEAS_COND_AXIS_NAME-62 "CW_Temperature1"
*MEAS_COND_AXIS_NAME-63 "CW_Pressure1"
*MEAS_COND_AXIS_NAME-64 "CW_PressureIn"
*MEAS_COND_AXIS_NAME-65 "CW_PressureOut"
*MEAS_COND_AXIS_NAME-66 "CW_Flow2"
*MEAS_COND_AXIS_NAME-67 "CW_Temperature2"
*MEAS_COND_AXIS_NAME-68 "CW_Pressure2"
*MEAS_COND_AXIS_NAME-69 "RE_EnclosureTemp"
*MEAS_COND_AXIS_NAME-7 "TwoThetaChi"
*MEAS_COND_AXIS_NAME-70 "RE_EnclosureHummidity"
*MEAS_COND_AXIS_NAME-71 "RE_CabinetTemp"
*MEAS_COND_AXIS_NAME-72 "RE_RPTemp"
*MEAS_COND_AXIS_NAME-73 "RE_ShutterAXrayOnTime"
*MEAS_COND_AXIS_NAME-74 "RE_ShutterATimes"
*MEAS_COND_AXIS_NAME-75 "RE_ShutterAOpenCloseTime"
*MEAS_COND_AXIS_NAME-76 "RE_ShutterACloseOpenTime"
*MEAS_COND_AXIS_NAME-77 "RE_ShutterBXrayOnTime"
*MEAS_COND_AXIS_NAME-78 "RE_ShutterBTimes"
*MEAS_COND_AXIS_NAME-79 "RE_ShutterBOpenCloseTime"
*MEAS_COND_AXIS_NAME-8 "GonioDirectBeamStop"
*MEAS_COND_AXIS_NAME-80 "RE_ShutterBCloseOpenTime"
*MEAS_COND_AXIS_NAME-81 "RE_XrayWarningRamp"
*MEAS_COND_AXIS_NAME-82 "RE_ShutterAInstallation"
*MEAS_COND_AXIS_NAME-83 "RE_ShutterARamp"
*MEAS_COND_AXIS_NAME-84 "RE_ShutterBInstallation"
*MEAS_COND_AXIS_NAME-85 "RE_ShutterBRamp"
*MEAS_COND_AXIS_NAME-86 "RE_ExtShutterCLS"
*MEAS_COND_AXIS_NAME-87 "RE_ExtXrayOFF"
*MEAS_COND_AXIS_NAME-88 "RE_ExtSafetyCircuit"
*MEAS_COND_AXIS_NAME-89 "Version_CPU"
*MEAS_COND_AXIS_NAME-9 "Ts"
*MEAS_COND_AXIS_NAME-90 "Version_RS1"
*MEAS_COND_AXIS_NAME-91 "Version_RS2"
*MEAS_COND_AXIS_NAME-92 "Version_HV"
*MEAS_COND_AXIS_NAME-93 "Version_CW"
*MEAS_COND_AXIS_NAME-94 "Version_RT"
*MEAS_COND_AXIS_NAME-95 "Axis_GoniometerGreaseUp"
*MEAS_COND_AXIS_NAME-96 "Lens"
*MEAS_COND_AXIS_NAME-97 "IncidentPrimary"
*MEAS_COND_AXIS_NAME-98 "IncidentMonochromator"
*MEAS_COND_AXIS_NAME-99 "ReceivingOptics"
*MEAS_COND_AXIS_OFFSET-0 "0.0612"
*MEAS_COND_AXIS_OFFSET-1 "0.318"
*MEAS_COND_AXIS_OFFSET-10 "0"
*MEAS_COND_AXIS_OFFSET-100 "0"
*MEAS_COND_AXIS_OFFSET-11 "0"
*MEAS_COND_AXIS_OFFSET-12 "0"
*MEAS_COND_AXIS_OFFSET-13 "0"
*MEAS_COND_AXIS_OFFSET-14 "0"
*MEAS_COND_AXIS_OFFSET-15 "0"
*MEAS_COND_AXIS_OFFSET-16 "0"
*MEAS_COND_AXIS_OFFSET-17 "0"
*MEAS_COND_AXIS_OFFSET-18 "0"
*MEAS_COND_AXIS_OFFSET-19 "0"
*MEAS_COND_AXIS_OFFSET-2 "0.3792"
*MEAS_COND_AXIS_OFFSET-20 "0"
*MEAS_COND_AXIS_OFFSET-21 "0"
*MEAS_COND_AXIS_OFFSET-22 "0"
*MEAS_COND_AXIS_OFFSET-23 "0"
*MEAS_COND_AXIS_OFFSET-24 "0"
*MEAS_COND_AXIS_OFFSET-25 "0"
*MEAS_COND_AXIS_OFFSET-26 "0"
*MEAS_COND_AXIS_OFFSET-27 "0"
*MEAS_COND_AXIS_OFFSET-28 "0"
*MEAS_COND_AXIS_OFFSET-29 "0"
*MEAS_COND_AXIS_OFFSET-3 "0.0612"
*MEAS_COND_AXIS_OFFSET-30 "0"
*MEAS_COND_AXIS_OFFSET-31 "0"
*MEAS_COND_AXIS_OFFSET-32 "0"
*MEAS_COND_AXIS_OFFSET-33 "0"
*MEAS_COND_AXIS_OFFSET-34 "0"
*MEAS_COND_AXIS_OFFSET-35 "0"
*MEAS_COND_AXIS_OFFSET-36 "0"
*MEAS_COND_AXIS_OFFSET-37 "0"
*MEAS_COND_AXIS_OFFSET-38 "0"
*MEAS_COND_AXIS_OFFSET-39 "0"
*MEAS_COND_AXIS_OFFSET-4 "0"
*MEAS_COND_AXIS_OFFSET-40 "0"
*MEAS_COND_AXIS_OFFSET-41 "0"
*MEAS_COND_AXIS_OFFSET-42 "0"
*MEAS_COND_AXIS_OFFSET-43 "0"
*MEAS_COND_AXIS_OFFSET-44 "0"
*MEAS_COND_AXIS_OFFSET-45 "0"
*MEAS_COND_AXIS_OFFSET-46 "0"
*MEAS_COND_AXIS_OFFSET-47 "0"
*MEAS_COND_AXIS_OFFSET-48 "0"
*MEAS_COND_AXIS_OFFSET-49 "0"
*MEAS_COND_AXIS_OFFSET-5 "0"
*MEAS_COND_AXIS_OFFSET-50 "0"
*MEAS_COND_AXIS_OFFSET-51 "0"
*MEAS_COND_AXIS_OFFSET-52 "0"
*MEAS_COND_AXIS_OFFSET-53 "0"
*MEAS_COND_AXIS_OFFSET-54 "0"
*MEAS_COND_AXIS_OFFSET-55 "0"
*MEAS_COND_AXIS_OFFSET-56 "0"
*MEAS_COND_AXIS_OFFSET-57 "0"
*MEAS_COND_AXIS_OFFSET-58 "0"
*MEAS_COND_AXIS_OFFSET-59 "0"
*MEAS_COND_AXIS_OFFSET-6 "0"
*MEAS_COND_AXIS_OFFSET-60 "0"
*MEAS_COND_AXIS_OFFSET-61 "0"
*MEAS_COND_AXIS_OFFSET-62 "0"
*MEAS_COND_AXIS_OFFSET-63 "0"
*MEAS_COND_AXIS_OFFSET-64 "0"
*MEAS_COND_AXIS_OFFSET-65 "0"
*MEAS_COND_AXIS_OFFSET-66 "0"
*MEAS_COND_AXIS_OFFSET-67 "0"
*MEAS_COND_AXIS_OFFSET-68 "0"
*MEAS_COND_AXIS_OFFSET-69 "0"
*MEAS_COND_AXIS_OFFSET-7 "0"
*MEAS_COND_AXIS_OFFSET-70 "0"
*MEAS_COND_AXIS_OFFSET-71 "0"
*MEAS_COND_AXIS_OFFSET-72 "0"
*MEAS_COND_AXIS_OFFSET-73 "0"
*MEAS_COND_AXIS_OFFSET-74 "0"
*MEAS_COND_AXIS_OFFSET-75 "0"
*MEAS_COND_AXIS_OFFSET-76 "0"
*MEAS_COND_AXIS_OFFSET-77 "0"
*MEAS_COND_AXIS_OFFSET-78 "0"
*MEAS_COND_AXIS_OFFSET-79 "0"
*MEAS_COND_AXIS_OFFSET-8 "0"
*MEAS_COND_AXIS_OFFSET-80 "0"
*MEAS_COND_AXIS_OFFSET-81 "0"
*MEAS_COND_AXIS_OFFSET-82 "0"
*MEAS_COND_AXIS_OFFSET-83 "0"
*MEAS_COND_AXIS_OFFSET-84 "0"
*MEAS_COND_AXIS_OFFSET-85 "0"
*MEAS_COND_AXIS_OFFSET-86 "0"
*MEAS_COND_AXIS_OFFSET-87 "0"
*MEAS_COND_AXIS_OFFSET-88 "0"
*MEAS_COND_AXIS_OFFSET-89 "0"
*MEAS_COND_AXIS_OFFSET-9 "0"
*MEAS_COND_AXIS_OFFSET-90 "0"
*MEAS_COND_AXIS_OFFSET-91 "0"
*MEAS_COND_AXIS_OFFSET-92 "0"
*MEAS_COND_AXIS_OFFSET-93 "0"
*MEAS_COND_AXIS_OFFSET-94 "0"
*MEAS_COND_AXIS_OFFSET-95 "0"
*MEAS_COND_AXIS_OFFSET-96 "0"
*MEAS_COND_AXIS_OFFSET-97 "0"
*MEAS_COND_AXIS_OFFSET-98 "0"
*MEAS_COND_AXIS_OFFSET-99 "0"
*MEAS_COND_AXIS_POSITION-0 "45.9789"
*MEAS_COND_AXIS_POSITION-1 "45.9789"
*MEAS_COND_AXIS_POSITION-10 "Right"
*MEAS_COND_AXIS_POSITION-100 "None"
*MEAS_COND_AXIS_POSITION-11 "None"
*MEAS_COND_AXIS_POSITION-12 "Type1"
*MEAS_COND_AXIS_POSITION-13 "0"
*MEAS_COND_AXIS_POSITION-14 "BB"
*MEAS_COND_AXIS_POSITION-15 "Type1"
*MEAS_COND_AXIS_POSITION-16 "Soller_slit_5.0deg"
*MEAS_COND_AXIS_POSITION-17 "Type1"
*MEAS_COND_AXIS_POSITION-18 "2/3deg"
*MEAS_COND_AXIS_POSITION-19 "2.210625"
*MEAS_COND_AXIS_POSITION-2 "91.9578"
*MEAS_COND_AXIS_POSITION-20 "2/3deg"
*MEAS_COND_AXIS_POSITION-21 "0.6000000"
*MEAS_COND_AXIS_POSITION-22 "10mm"
*MEAS_COND_AXIS_POSITION-23 "10mm"
*MEAS_COND_AXIS_POSITION-24 "10mm"
*MEAS_COND_AXIS_POSITION-25 "0.27080"
*MEAS_COND_AXIS_POSITION-26 "Out"
*MEAS_COND_AXIS_POSITION-27 "None"
*MEAS_COND_AXIS_POSITION-29 "2"
*MEAS_COND_AXIS_POSITION-3 "45.9789"
*MEAS_COND_AXIS_POSITION-30 "Open"
*MEAS_COND_AXIS_POSITION-31 "20.000000"
*MEAS_COND_AXIS_POSITION-32 "Open"
*MEAS_COND_AXIS_POSITION-33 "-0.6909375"
*MEAS_COND_AXIS_POSITION-34 "Cu_K-beta"
*MEAS_COND_AXIS_POSITION-35 "PSA_open"
*MEAS_COND_AXIS_POSITION-36 "Soller_slit_5.0deg"
*MEAS_COND_AXIS_POSITION-37 "20.100mm"
*MEAS_COND_AXIS_POSITION-38 "20.1"
*MEAS_COND_AXIS_POSITION-39 "20.100mm"
*MEAS_COND_AXIS_POSITION-4 "91.9578"
*MEAS_COND_AXIS_POSITION-40 "DC"
*MEAS_COND_AXIS_POSITION-41 "Mo-HiC"
*MEAS_COND_AXIS_POSITION-43 "None"
*MEAS_COND_AXIS_POSITION-44 "None"
*MEAS_COND_AXIS_POSITION-45 "None"
*MEAS_COND_AXIS_POSITION-5 "91.9578"
*MEAS_COND_AXIS_POSITION-6 "45.9789"
*MEAS_COND_AXIS_POSITION-7 "0.0000"
*MEAS_COND_AXIS_POSITION-8 "Out"
*MEAS_COND_AXIS_POSITION-9 "0.0000000"
*MEAS_COND_AXIS_POSITION-96 "1"
*MEAS_COND_AXIS_POSITION-97 "Standard"
*MEAS_COND_AXIS_POSITION-98 "IPS_adaptor"
*MEAS_COND_AXIS_POSITION-99 "PSA_open"
*MEAS_COND_AXIS_RESOLUTION-0 "0.0001"
*MEAS_COND_AXIS_RESOLUTION-1 "0.0001"
*MEAS_COND_AXIS_RESOLUTION-10 ""
*MEAS_COND_AXIS_RESOLUTION-11 ""
*MEAS_COND_AXIS_RESOLUTION-12 ""
*MEAS_COND_AXIS_RESOLUTION-13 "1"
*MEAS_COND_AXIS_RESOLUTION-14 ""
*MEAS_COND_AXIS_RESOLUTION-15 ""
*MEAS_COND_AXIS_RESOLUTION-16 ""
*MEAS_COND_AXIS_RESOLUTION-17 ""
*MEAS_COND_AXIS_RESOLUTION-18 "1/1600"
*MEAS_COND_AXIS_RESOLUTION-19 "1/1600"
*MEAS_COND_AXIS_RESOLUTION-2 "0.0001"
*MEAS_COND_AXIS_RESOLUTION-20 "1/1600"
*MEAS_COND_AXIS_RESOLUTION-21 "0.0003125"
*MEAS_COND_AXIS_RESOLUTION-22 ""
*MEAS_COND_AXIS_RESOLUTION-23 ""
*MEAS_COND_AXIS_RESOLUTION-24 ""
*MEAS_COND_AXIS_RESOLUTION-25 "0.00002"
*MEAS_COND_AXIS_RESOLUTION-26 ""
*MEAS_COND_AXIS_RESOLUTION-27 ""
*MEAS_COND_AXIS_RESOLUTION-28 "0.09"
*MEAS_COND_AXIS_RESOLUTION-29 "1"
*MEAS_COND_AXIS_RESOLUTION-3 "0.0001"
*MEAS_COND_AXIS_RESOLUTION-30 "1/1600"
*MEAS_COND_AXIS_RESOLUTION-31 "1/1600"
*MEAS_COND_AXIS_RESOLUTION-32 "1/1600"
*MEAS_COND_AXIS_RESOLUTION-33 "0.0003125"
*MEAS_COND_AXIS_RESOLUTION-34 ""
*MEAS_COND_AXIS_RESOLUTION-35 ""
*MEAS_COND_AXIS_RESOLUTION-36 ""
*MEAS_COND_AXIS_RESOLUTION-37 "0.1"
*MEAS_COND_AXIS_RESOLUTION-38 "0.1"
*MEAS_COND_AXIS_RESOLUTION-39 "0.1"
*MEAS_COND_AXIS_RESOLUTION-4 "0.0002"
*MEAS_COND_AXIS_RESOLUTION-40 ""
*MEAS_COND_AXIS_RESOLUTION-41 ""
*MEAS_COND_AXIS_RESOLUTION-42 "1"
*MEAS_COND_AXIS_RESOLUTION-43 ""
*MEAS_COND_AXIS_RESOLUTION-44 ""
*MEAS_COND_AXIS_RESOLUTION-45 ""
*MEAS_COND_AXIS_RESOLUTION-46 "0.01"
*MEAS_COND_AXIS_RESOLUTION-47 "0.010000"
*MEAS_COND_AXIS_RESOLUTION-48 "0.01"
*MEAS_COND_AXIS_RESOLUTION-49 "1"
*MEAS_COND_AXIS_RESOLUTION-5 "0.0002"
*MEAS_COND_AXIS_RESOLUTION-50 "1"
*MEAS_COND_AXIS_RESOLUTION-51 "0.01"
*MEAS_COND_AXIS_RESOLUTION-52 "1"
*MEAS_COND_AXIS_RESOLUTION-53 "0.01"
*MEAS_COND_AXIS_RESOLUTION-54 "0.01"
*MEAS_COND_AXIS_RESOLUTION-55 "0.01"
*MEAS_COND_AXIS_RESOLUTION-56 "0.01"
*MEAS_COND_AXIS_RESOLUTION-57 "0.010000"
*MEAS_COND_AXIS_RESOLUTION-58 "0.01"
*MEAS_COND_AXIS_RESOLUTION-59 "0.01"
*MEAS_COND_AXIS_RESOLUTION-6 "0.0001"
*MEAS_COND_AXIS_RESOLUTION-60 "1"
*MEAS_COND_AXIS_RESOLUTION-61 "0.100000"
*MEAS_COND_AXIS_RESOLUTION-62 "1.000000"
*MEAS_COND_AXIS_RESOLUTION-63 "0.010000"
*MEAS_COND_AXIS_RESOLUTION-64 "0.01"
*MEAS_COND_AXIS_RESOLUTION-65 "0.01"
*MEAS_COND_AXIS_RESOLUTION-66 "0.1"
*MEAS_COND_AXIS_RESOLUTION-67 "1"
*MEAS_COND_AXIS_RESOLUTION-68 "0.01"
*MEAS_COND_AXIS_RESOLUTION-69 "1.000000"
*MEAS_COND_AXIS_RESOLUTION-7 "0.0005"
*MEAS_COND_AXIS_RESOLUTION-70 "1"
*MEAS_COND_AXIS_RESOLUTION-71 "1.000000"
*MEAS_COND_AXIS_RESOLUTION-72 "1"
*MEAS_COND_AXIS_RESOLUTION-73 "0.01"
*MEAS_COND_AXIS_RESOLUTION-74 "1"
*MEAS_COND_AXIS_RESOLUTION-75 "1"
*MEAS_COND_AXIS_RESOLUTION-76 "1"
*MEAS_COND_AXIS_RESOLUTION-77 "0.01"
*MEAS_COND_AXIS_RESOLUTION-78 "1.000000"
*MEAS_COND_AXIS_RESOLUTION-79 "1.000000"
*MEAS_COND_AXIS_RESOLUTION-8 ""
*MEAS_COND_AXIS_RESOLUTION-80 "1.000000"
*MEAS_COND_AXIS_RESOLUTION-81 "-"
*MEAS_COND_AXIS_RESOLUTION-82 "-"
*MEAS_COND_AXIS_RESOLUTION-83 "-"
*MEAS_COND_AXIS_RESOLUTION-84 "1.000000"
*MEAS_COND_AXIS_RESOLUTION-85 "-"
*MEAS_COND_AXIS_RESOLUTION-86 "-"
*MEAS_COND_AXIS_RESOLUTION-87 "-"
*MEAS_COND_AXIS_RESOLUTION-88 "1.000000"
*MEAS_COND_AXIS_RESOLUTION-89 "1.000000"
*MEAS_COND_AXIS_RESOLUTION-9 "0.0000625"
*MEAS_COND_AXIS_RESOLUTION-90 "1.000000"
*MEAS_COND_AXIS_RESOLUTION-91 "1.000000"
*MEAS_COND_AXIS_RESOLUTION-92 "1.000000"
*MEAS_COND_AXIS_RESOLUTION-93 "1.000000"
*MEAS_COND_AXIS_RESOLUTION-94 "1.000000"
*MEAS_COND_AXIS_RESOLUTION-95 "0.01"
*MEAS_COND_AXIS_RESOLUTION-96 ""
*MEAS_COND_AXIS_SPEED_RESOLUTION-28 "0.1"
*MEAS_COND_AXIS_SPEED_UNIT-28 "rpm"
*MEAS_COND_AXIS_SPEED-28 "10"
*MEAS_COND_AXIS_STATE-0 "Fixed"
*MEAS_COND_AXIS_STATE-1 "Fixed"
*MEAS_COND_AXIS_STATE-10 "Fixed"
*MEAS_COND_AXIS_STATE-11 "Fixed"
*MEAS_COND_AXIS_STATE-12 "Fixed"
*MEAS_COND_AXIS_STATE-13 "Fixed"
*MEAS_COND_AXIS_STATE-14 "Fixed"
*MEAS_COND_AXIS_STATE-15 "Fixed"
*MEAS_COND_AXIS_STATE-16 "Fixed"
*MEAS_COND_AXIS_STATE-17 "Fixed"
*MEAS_COND_AXIS_STATE-18 "Fixed"
*MEAS_COND_AXIS_STATE-19 "Fixed"
*MEAS_COND_AXIS_STATE-2 "Fixed"
*MEAS_COND_AXIS_STATE-20 "Fixed"
*MEAS_COND_AXIS_STATE-21 "Fixed"
*MEAS_COND_AXIS_STATE-22 "Fixed"
*MEAS_COND_AXIS_STATE-23 "Fixed"
*MEAS_COND_AXIS_STATE-24 "Fixed"
*MEAS_COND_AXIS_STATE-25 "Fixed"
*MEAS_COND_AXIS_STATE-26 "Fixed"
*MEAS_COND_AXIS_STATE-27 "Fixed"
*MEAS_COND_AXIS_STATE-28 "Rotation"
*MEAS_COND_AXIS_STATE-29 "Fixed"
*MEAS_COND_AXIS_STATE-3 "Fixed"
*MEAS_COND_AXIS_STATE-30 "Fixed"
*MEAS_COND_AXIS_STATE-31 "Fixed"
*MEAS_COND_AXIS_STATE-32 "Fixed"
*MEAS_COND_AXIS_STATE-33 "Fixed"
*MEAS_COND_AXIS_STATE-34 "Fixed"
*MEAS_COND_AXIS_STATE-35 "Fixed"
*MEAS_COND_AXIS_STATE-36 "Fixed"
*MEAS_COND_AXIS_STATE-37 "Fixed"
*MEAS_COND_AXIS_STATE-38 "Fixed"
*MEAS_COND_AXIS_STATE-39 "Fixed"
*MEAS_COND_AXIS_STATE-4 "Scan"
*MEAS_COND_AXIS_STATE-40 "Fixed"
*MEAS_COND_AXIS_STATE-41 "Fixed"
*MEAS_COND_AXIS_STATE-42 "Fixed"
*MEAS_COND_AXIS_STATE-43 "Fixed"
*MEAS_COND_AXIS_STATE-44 "Fixed"
*MEAS_COND_AXIS_STATE-45 "Fixed"
*MEAS_COND_AXIS_STATE-46 "Fixed"
*MEAS_COND_AXIS_STATE-47 "Fixed"
*MEAS_COND_AXIS_STATE-48 "Fixed"
*MEAS_COND_AXIS_STATE-49 "Fixed"
*MEAS_COND_AXIS_STATE-5 "Fixed"
*MEAS_COND_AXIS_STATE-50 "Fixed"
*MEAS_COND_AXIS_STATE-51 "Fixed"
*MEAS_COND_AXIS_STATE-52 "Fixed"
*MEAS_COND_AXIS_STATE-53 "Fixed"
*MEAS_COND_AXIS_STATE-54 "Fixed"
*MEAS_COND_AXIS_STATE-55 "Fixed"
*MEAS_COND_AXIS_STATE-56 "Fixed"
*MEAS_COND_AXIS_STATE-57 "Fixed"
*MEAS_COND_AXIS_STATE-58 "Fixed"
*MEAS_COND_AXIS_STATE-59 "Fixed"
*MEAS_COND_AXIS_STATE-6 "Fixed"
*MEAS_COND_AXIS_STATE-60 "Fixed"
*MEAS_COND_AXIS_STATE-61 "Fixed"
*MEAS_COND_AXIS_STATE-62 "Fixed"
*MEAS_COND_AXIS_STATE-63 "Fixed"
*MEAS_COND_AXIS_STATE-64 "Fixed"
*MEAS_COND_AXIS_STATE-65 "Fixed"
*MEAS_COND_AXIS_STATE-66 "Fixed"
*MEAS_COND_AXIS_STATE-67 "Fixed"
*MEAS_COND_AXIS_STATE-68 "Fixed"
*MEAS_COND_AXIS_STATE-69 "Fixed"
*MEAS_COND_AXIS_STATE-7 "Fixed"
*MEAS_COND_AXIS_STATE-70 "Fixed"
*MEAS_COND_AXIS_STATE-71 "Fixed"
*MEAS_COND_AXIS_STATE-72 "Fixed"
*MEAS_COND_AXIS_STATE-73 "Fixed"
*MEAS_COND_AXIS_STATE-74 "Fixed"
*MEAS_COND_AXIS_STATE-75 "Fixed"
*MEAS_COND_AXIS_STATE-76 "Fixed"
*MEAS_COND_AXIS_STATE-77 "Fixed"
*MEAS_COND_AXIS_STATE-78 "Fixed"
*MEAS_COND_AXIS_STATE-79 "Fixed"
*MEAS_COND_AXIS_STATE-8 "Fixed"
*MEAS_COND_AXIS_STATE-80 "Fixed"
*MEAS_COND_AXIS_STATE-81 "Fixed"
*MEAS_COND_AXIS_STATE-82 "Fixed"
*MEAS_COND_AXIS_STATE-83 "Fixed"
*MEAS_COND_AXIS_STATE-84 "Fixed"
*MEAS_COND_AXIS_STATE-85 "Fixed"
*MEAS_COND_AXIS_STATE-86 "Fixed"
*MEAS_COND_AXIS_STATE-87 "Fixed"
*MEAS_COND_AXIS_STATE-88 "Fixed"
*MEAS_COND_AXIS_STATE-89 "Fixed"
*MEAS_COND_AXIS_STATE-9 "Fixed"
*MEAS_COND_AXIS_STATE-90 "Fixed"
*MEAS_COND_AXIS_STATE-91 "Fixed"
*MEAS_COND_AXIS_STATE-92 "Fixed"
*MEAS_COND_AXIS_STATE-93 "Fixed"
*MEAS_COND_AXIS_STATE-94 "Fixed"
*MEAS_COND_AXIS_STATE-95 "Fixed"
*MEAS_COND_AXIS_STATE-96 "Fixed"
*MEAS_COND_AXIS_UNIT-0 "deg"
*MEAS_COND_AXIS_UNIT-1 "deg"
*MEAS_COND_AXIS_UNIT-10 ""
*MEAS_COND_AXIS_UNIT-100 ""
*MEAS_COND_AXIS_UNIT-11 ""
*MEAS_COND_AXIS_UNIT-12 ""
*MEAS_COND_AXIS_UNIT-13 "pulse"
*MEAS_COND_AXIS_UNIT-14 ""
*MEAS_COND_AXIS_UNIT-15 ""
*MEAS_COND_AXIS_UNIT-16 ""
*MEAS_COND_AXIS_UNIT-17 ""
*MEAS_COND_AXIS_UNIT-18 ""
*MEAS_COND_AXIS_UNIT-19 "mm"
*MEAS_COND_AXIS_UNIT-2 "deg"
*MEAS_COND_AXIS_UNIT-20 ""
*MEAS_COND_AXIS_UNIT-21 "mm"
*MEAS_COND_AXIS_UNIT-22 ""
*MEAS_COND_AXIS_UNIT-23 ""
*MEAS_COND_AXIS_UNIT-24 ""
*MEAS_COND_AXIS_UNIT-25 "mm"
*MEAS_COND_AXIS_UNIT-26 ""
*MEAS_COND_AXIS_UNIT-27 ""
*MEAS_COND_AXIS_UNIT-28 "deg"
*MEAS_COND_AXIS_UNIT-29 ""
*MEAS_COND_AXIS_UNIT-3 "deg"
*MEAS_COND_AXIS_UNIT-30 ""
*MEAS_COND_AXIS_UNIT-31 "mm"
*MEAS_COND_AXIS_UNIT-32 ""
*MEAS_COND_AXIS_UNIT-33 "mm"
*MEAS_COND_AXIS_UNIT-34 ""
*MEAS_COND_AXIS_UNIT-35 ""
*MEAS_COND_AXIS_UNIT-36 ""
*MEAS_COND_AXIS_UNIT-37 ""
*MEAS_COND_AXIS_UNIT-38 "mm"
*MEAS_COND_AXIS_UNIT-39 ""
*MEAS_COND_AXIS_UNIT-4 "deg"
*MEAS_COND_AXIS_UNIT-40 ""
*MEAS_COND_AXIS_UNIT-41 ""
*MEAS_COND_AXIS_UNIT-42 "keV"
*MEAS_COND_AXIS_UNIT-43 ""
*MEAS_COND_AXIS_UNIT-44 ""
*MEAS_COND_AXIS_UNIT-45 ""
*MEAS_COND_AXIS_UNIT-46 "H"
*MEAS_COND_AXIS_UNIT-47 "H"
*MEAS_COND_AXIS_UNIT-48 "H"
*MEAS_COND_AXIS_UNIT-49 "mV"
*MEAS_COND_AXIS_UNIT-5 "deg"
*MEAS_COND_AXIS_UNIT-50 "V"
*MEAS_COND_AXIS_UNIT-51 "V"
*MEAS_COND_AXIS_UNIT-52 "V"
*MEAS_COND_AXIS_UNIT-53 "H"
*MEAS_COND_AXIS_UNIT-54 "H"
*MEAS_COND_AXIS_UNIT-55 "H"
*MEAS_COND_AXIS_UNIT-56 "H"
*MEAS_COND_AXIS_UNIT-57 "H"
*MEAS_COND_AXIS_UNIT-58 "H"
*MEAS_COND_AXIS_UNIT-59 "H"
*MEAS_COND_AXIS_UNIT-6 "deg"
*MEAS_COND_AXIS_UNIT-60 "uS/m"
*MEAS_COND_AXIS_UNIT-61 "L/min"
*MEAS_COND_AXIS_UNIT-62 "degree"
*MEAS_COND_AXIS_UNIT-63 "MPa"
*MEAS_COND_AXIS_UNIT-64 "MPa"
*MEAS_COND_AXIS_UNIT-65 "MPa"
*MEAS_COND_AXIS_UNIT-66 "L/min"
*MEAS_COND_AXIS_UNIT-67 "C"
*MEAS_COND_AXIS_UNIT-68 "MPa"
*MEAS_COND_AXIS_UNIT-69 "degree"
*MEAS_COND_AXIS_UNIT-7 "deg"
*MEAS_COND_AXIS_UNIT-70 "percent"
*MEAS_COND_AXIS_UNIT-71 "degree"
*MEAS_COND_AXIS_UNIT-72 "C"
*MEAS_COND_AXIS_UNIT-73 "H"
*MEAS_COND_AXIS_UNIT-74 "time"
*MEAS_COND_AXIS_UNIT-75 "msec"
*MEAS_COND_AXIS_UNIT-76 "msec"
*MEAS_COND_AXIS_UNIT-77 "H"
*MEAS_COND_AXIS_UNIT-78 "times"
*MEAS_COND_AXIS_UNIT-79 "msec"
*MEAS_COND_AXIS_UNIT-8 ""
*MEAS_COND_AXIS_UNIT-80 "msec"
*MEAS_COND_AXIS_UNIT-81 "-"
*MEAS_COND_AXIS_UNIT-82 "-"
*MEAS_COND_AXIS_UNIT-83 "-"
*MEAS_COND_AXIS_UNIT-84 ""
*MEAS_COND_AXIS_UNIT-85 "-"
*MEAS_COND_AXIS_UNIT-86 "-"
*MEAS_COND_AXIS_UNIT-87 "-"
*MEAS_COND_AXIS_UNIT-88 ""
*MEAS_COND_AXIS_UNIT-89 ""
*MEAS_COND_AXIS_UNIT-9 "mm"
*MEAS_COND_AXIS_UNIT-90 ""
*MEAS_COND_AXIS_UNIT-91 ""
*MEAS_COND_AXIS_UNIT-92 ""
*MEAS_COND_AXIS_UNIT-93 ""
*MEAS_COND_AXIS_UNIT-94 ""
*MEAS_COND_AXIS_UNIT-95 "H"
*MEAS_COND_AXIS_UNIT-96 ""
*MEAS_COND_AXIS_UNIT-97 ""
*MEAS_COND_AXIS_UNIT-98 ""
*MEAS_COND_AXIS_UNIT-99 ""
*MEAS_COND_COUNTER_CENTER_X "382.5"
*MEAS_COND_COUNTER_CENTER_Y "197.5"
*MEAS_COND_COUNTER_COUNTMODE "Differential"
*MEAS_COND_COUNTER_DEADTIMECORRECTION "Enabled"
*MEAS_COND_COUNTER_DISTANCE "300"
*MEAS_COND_COUNTER_ENERGYMODE "XRFReduction"
*MEAS_COND_COUNTER_INTEGRALMODE "Line"
*MEAS_COND_COUNTER_PHA_UNIT "keV"
*MEAS_COND_COUNTER_PHABASE "7.0"
*MEAS_COND_COUNTER_PHAWINDOW "5.0"
*MEAS_COND_COUNTER_PITCH_X "0.1"
*MEAS_COND_COUNTER_PITCH_Y "0.1"
*MEAS_COND_COUNTER_PITCHUNIT "mm"
*MEAS_COND_COUNTER_VALIDWIDTH_X "200"
*MEAS_COND_COUNTER_VALIDWIDTH_Y "201"
*MEAS_COND_OPT_ATTR "BB"
*MEAS_COND_OPT_NAME "User defined settings"
*MEAS_COND_XG_CURRENT "35"
*MEAS_COND_XG_VOLTAGE "40"
*MEAS_COND_XG_WAVE_TYPE "Ka"
*MEAS_DATA_COUNT "7501"
*MEAS_SCAN_AXIS_X "TwoThetaTheta"
*MEAS_SCAN_AXIS_X_INTERNAL "TwoThetaTheta"
*MEAS_SCAN_END_TIME "07/14/2023 12:23:51"
*MEAS_SCAN_MODE "CONTINUOUS"
*MEAS_SCAN_MODE_INTERNAL "TDI_1D"
*MEAS_SCAN_RESOLUTION_X "0.0002"
*MEAS_SCAN_SPEED "4.0000"
*MEAS_SCAN_SPEED_UNIT "deg/min"
*MEAS_SCAN_START "15.0000"
*MEAS_SCAN_START_TIME "07/14/2023 12:03:39"
*MEAS_SCAN_STEP "0.0100"
*MEAS_SCAN_STOP "90.0000"
*MEAS_SCAN_UNEQUALY_SPACED "False"
*MEAS_SCAN_UNIT_X "deg"
*MEAS_SCAN_UNIT_Y "cps"
#Intensity_unit=cps
#Attenuator_coefficient=1.0000
15.0000 17791.3606
15.0100 18417.6074
15.0200 18283.7858
15.0300 18202.1192
15.0400 18609.6892
15.0500 18187.5146
15.0600 18438.8054
15.0700 17849.8080
15.0800 17993.8786
15.0900 17787.3308
15.1000 18477.6708
15.1100 18306.8440
15.1200 18696.9498
15.1300 18524.5850
15.1400 18027.7914
15.1500 18177.3502
15.1600 18266.8912
15.1700 17670.9928
15.1800 18159.5458
15.1900 18211.8832
15.2000 18624.3018
15.2100 18054.5590
15.2200 17629.1910
15.2300 18070.4102
15.2400 17621.7724
15.2500 17685.8122
15.2600 18130.6088
15.2700 18136.8278
15.2800 18153.5742
15.2900 17398.8282
15.3000 17151.5088
15.3100 18021.6552
15.3200 17937.7946
15.3300 17778.8216
15.3400 17789.4532
15.3500 18159.8764
15.3600 17629.9462
15.3700 17731.0302
15.3800 18038.7988
15.3900 17554.5100
15.4000 18127.6498
15.4100 18415.4558
15.4200 17995.3190
15.4300 17721.3656
15.4400 17681.9646
15.4500 17676.8994
15.4600 17339.5182
15.4700 18142.3046
15.4800 17147.9248
15.4900 17493.4376
15.5000 17625.9782
15.5100 17982.1338
15.5200 17342.5992
15.5300 17833.1560
15.5400 17816.4144
15.5500 17660.9066
15.5600 17273.9388
15.5700 18020.3028
15.5800 17204.6680
15.5900 17565.7878
15.6000 17123.7190
15.6100 18252.4348
15.6200 17784.5606
15.6300 17534.6598
15.6400 17396.9742
15.6500 17152.3764
15.6600 17864.2318
15.6700 17656.2776
15.6800 17696.5088
15.6900 17561.5560
15.7000 16991.5398
15.7100 17542.9346
15.7200 17650.4850
15.7300 17333.6360
15.7400 17446.3282
15.7500 17310.8642
15.7600 17987.4154
15.7700 16885.5094
15.7800 17647.6254
15.7900 17374.8046
15.8000 17437.4708
15.8100 17734.2432
15.8200 16853.1396
15.8300 17266.4762
15.8400 17463.2064
15.8500 17087.6790
15.8600 17165.2408
15.8700 17007.4382
15.8800 17210.1140
15.8900 17310.2734
15.9000 17572.0166
15.9100 17448.9242
15.9200 17307.2558
15.9300 17047.7506
15.9400 17016.6748
15.9500 17133.2812
15.9600 17253.2128
15.9700 17565.3500
15.9800 17313.3106
15.9900 17765.1954
16.0000 17169.4694
16.0100 16691.6146
16.0200 17135.9864
16.0300 17521.2126
16.0400 17439.1276
16.0500 17059.0528
16.0600 16976.1296
16.0700 17162.4642
16.0800 17081.0628
16.0900 16882.3650
16.1000 17267.5862
16.1100 16448.8932
16.1200 17024.9560
16.1300 17330.4134
16.1400 17005.7992
16.1500 17582.8858
16.1600 17541.0954
16.1700 17010.8772
16.1800 17483.2600
16.1900 17170.4346
16.2000 16872.7050
16.2100 17361.1018
16.2200 17490.5860
16.2300 16762.5976
16.2400 16637.7262
16.2500 16941.7644
16.2600 17203.1918
16.2700 17150.0276
16.2800 16746.3964
16.2900 17024.1764
16.3000 16893.9794
16.3100 16583.2942
16.3200 16431.8994
16.3300 17205.9864
16.3400 16578.8282
16.3500 16336.4030
16.3600 16374.1504
16.3700 16441.8506
16.3800 16523.3056
16.3900 16592.9264
16.4000 16876.8668
16.4100 17360.7048
16.4200 17170.4834
16.4300 17247.8598
16.4400 17155.0016
16.4500 17017.0948
16.4600 16565.0260
16.4700 16448.9242
16.4800 17517.5700
16.4900 16482.8956
16.5000 16566.0074
16.5100 16332.4430
16.5200 16707.4528
16.5300 16257.8500
16.5400 16272.8466
16.5500 16687.4496
16.5600 16395.4508
16.5700 16755.9506
16.5800 16564.7624
16.5900 16573.7060
16.6000 16916.5120
16.6100 17069.7786
16.6200 16832.4138
16.6300 16273.5432
16.6400 16458.9664
16.6500 16667.6204
16.6600 16286.9938
16.6700 16665.4720
16.6800 16430.4932
16.6900 15817.9802
16.7000 16554.3652
16.7100 16832.2836
16.7200 16669.0398
16.7300 16493.4488
16.7400 16627.1712
16.7500 16319.7640
16.7600 16654.5248
16.7700 16430.1302
16.7800 15997.1598
16.7900 16647.7002
16.8000 16315.2214
16.8100 16213.0518
16.8200 16731.7758
16.8300 16116.5332
16.8400 16496.5512
16.8500 16207.8352
16.8600 16248.5564
16.8700 16601.1246
16.8800 16117.4804
16.8900 15707.4918
16.9000 16184.0544
16.9100 15885.8578
16.9200 16208.4082
16.9300 16289.8226
16.9400 16258.1250
16.9500 16100.7048
16.9600 15650.9684
16.9700 15744.6712
16.9800 15859.2888
16.9900 15640.4524
17.0000 15590.5224
17.0100 15995.6526
17.0200 16584.2138
17.0300 16737.8842
17.0400 15959.2024
17.0500 15772.0964
17.0600 15899.5248
17.0700 16186.0596
17.0800 15982.0572
17.0900 15903.5156
17.1000 15839.9560
17.1100 15401.5072
17.1200 15967.2932
17.1300 16019.7592
17.1400 15908.9926
17.1500 16500.6868
17.1600 15996.6700
17.1700 15908.9568
17.1800 15875.8170
17.1900 15783.1788
17.2000 15409.1878
17.2100 15560.7910
17.2200 15847.9232
17.2300 15609.5264
17.2400 15450.2522
17.2500 15574.4612
17.2600 15907.4820
17.2700 15705.6542
17.2800 15991.8798
17.2900 16352.9638
17.3000 15784.3424
17.3100 15571.7122
17.3200 16137.6350
17.3300 15347.1614
17.3400 15600.4900
17.3500 15992.3746
17.3600 15629.2952
17.3700 15831.7220
17.3800 16118.8526
17.3900 15434.8356
17.4000 15497.2802
17.4100 15671.2956
17.4200 15084.8844
17.4300 15351.7546
17.4400 15803.9762
17.4500 15548.7662
17.4600 15437.6482
17.4700 15602.5944
17.4800 15470.2540
17.4900 15669.4776
17.5000 15429.3458
17.5100 16010.2864
17.5200 15979.7038
17.5300 16145.4182
17.5400 15811.5934
17.5500 15391.9564
17.5600 15634.7478
17.5700 15508.9160
17.5800 15121.9190
17.5900 15200.5518
17.6000 15617.5846
17.6100 15871.4356
17.6200 15765.8170
17.6300 15186.9922
17.6400 15474.6762
17.6500 15494.4628
17.6600 15392.3910
17.6700 15206.7530
17.6800 15193.3578
17.6900 15365.8106
17.7000 14697.2102
17.7100 15309.5914
17.7200 15277.8370
17.7300 14794.1618
17.7400 15138.0420
17.7500 15023.6686
17.7600 15035.3808
17.7700 14974.9756
17.7800 15548.7696
17.7900 15338.2292
17.8000 15963.6540
17.8100 15362.3340
17.8200 15048.0030
17.8300 15183.1510
17.8400 15031.8490
17.8500 14710.1498
17.8600 15391.2256
17.8700 15020.8772
17.8800 14891.2500
17.8900 15474.6176
17.9000 15208.8802
17.9100 15194.0478
17.9200 15473.0958
17.9300 15177.1176
17.9400 14723.5108
17.9500 15412.5016
17.9600 15358.9322
17.9700 15549.0950
17.9800 15552.3438
17.9900 14900.2686
18.0000 15357.0214
18.0100 14912.2152
18.0200 15273.1202
18.0300 15320.0992
18.0400 15075.2262
18.0500 14768.3952
18.0600 14937.0606
18.0700 15494.1976
18.0800 14914.3864
18.0900 14956.6570
18.1000 14592.3926
18.1100 14908.0144
18.1200 14604.7558
18.1300 14679.2204
18.1400 14839.8308
18.1500 15306.7204
18.1600 14719.9610
18.1700 14967.9280
18.1800 14726.5380
18.1900 14817.4040
18.2000 14767.7116
18.2100 14870.3500
18.2200 14926.0416
18.2300 14878.8656
18.2400 14956.9890
18.2500 14889.5328
18.2600 14980.2312
18.2700 14479.4514
18.2800 14680.0292
18.2900 14684.7526
18.3000 14640.2068
18.3100 14797.1012
18.3200 14083.3658
18.3300 14074.5866
18.3400 14867.2136
18.3500 14613.4586
18.3600 14945.4166
18.3700 14300.5046
18.3800 14810.3304
18.3900 14854.6354
18.4000 14996.7514
18.4100 14674.5052
18.4200 14654.5214
18.4300 14431.5966
18.4400 14778.2080
18.4500 14236.5022
18.4600 14994.5036
18.4700 14414.6256
18.4800 15145.0310
18.4900 14581.6830
18.5000 14814.1520
18.5100 14866.2110
18.5200 14388.0030
18.5300 14721.4306
18.5400 15030.5794
18.5500 14724.7102
18.5600 14333.3480
18.5700 14483.0860
18.5800 14365.9766
18.5900 14487.8598
18.6000 14788.1038
18.6100 14173.5368
18.6200 13792.2982
18.6300 14612.6156
18.6400 14461.2662
18.6500 14431.0824
18.6600 14493.9860
18.6700 14246.6634
18.6800 14660.7014
18.6900 14244.5834
18.7000 14414.8990
18.7100 13955.5452
18.7200 14507.5732
18.7300 14817.1290
18.7400 14066.4990
18.7500 13908.8264
18.7600 14351.5934
18.7700 14512.9378
18.7800 14058.7452
18.7900 14655.2408
18.8000 14222.6464
18.8100 14083.1770
18.8200 13799.0170
18.8300 13584.0096
18.8400 13768.1168
18.8500 13940.5274
18.8600 14211.1182
18.8700 14261.9238
18.8800 13649.6248
18.8900 14284.8990
18.9000 13792.7670
18.9100 14037.5276
18.9200 13919.5458
18.9300 13817.1712
18.9400 13912.3258
18.9500 13708.5726
18.9600 13677.6970
18.9700 13633.8176
18.9800 13806.6682
18.9900 13864.0380
19.0000 13857.1142
19.0100 13913.0046
19.0200 14439.0266
19.0300 13759.4498
19.0400 13513.7622
19.0500 13911.9026
19.0600 13776.2500
19.0700 13805.1254
19.0800 13772.4968
19.0900 13912.8694
19.1000 14122.8256
19.1100 13688.4082
19.1200 13799.2920
19.1300 13949.5996
19.1400 13886.1508
19.1500 14025.4752
19.1600 14032.2868
19.1700 13729.4678
19.1800 14556.4600
19.1900 13516.5804
19.2000 13725.1822
19.2100 13694.8796
19.2200 13848.2942
19.2300 13620.6616
19.2400 13240.0008
19.2500 13752.0248
19.2600 13631.7074
19.2700 13789.7070
19.2800 13807.6954
19.2900 13578.7582
19.3000 14088.3642
19.3100 13101.8498
19.3200 13789.5590
19.3300 13791.5120
19.3400 13192.8874
19.3500 13756.4876
19.3600 13241.0896
19.3700 13383.8306
19.3800 13458.4472
19.3900 13399.5890
19.4000 13945.1872
19.4100 13680.5616
19.4200 13291.6064
19.4300 13650.3198
19.4400 13779.3246
19.4500 13484.8528
19.4600 13834.8600
19.4700 13784.2106
19.4800 13652.5252
19.4900 13242.8784
19.5000 13510.5282
19.5100 13514.1016
19.5200 13334.5248
19.5300 12831.5478
19.5400 13301.0930
19.5500 13337.3698
19.5600 13728.8802
19.5700 13958.1706
19.5800 13198.5694
19.5900 13021.3338
19.6000 13193.3194
19.6100 13521.5984
19.6200 13109.4148
19.6300 13302.1208
19.6400 13116.4462
19.6500 13245.7634
19.6600 13399.3912
19.6700 13297.3266
19.6800 13233.2032
19.6900 12801.4348
19.7000 13108.2292
19.7100 13018.3650
19.7200 13622.8320
19.7300 13549.2008
19.7400 13184.6802
19.7500 13199.2936
19.7600 13370.8236
19.7700 13554.0764
19.7800 13156.3892
19.7900 13803.7598
19.8000 12977.4236
19.8100 13089.1382
19.8200 13307.6042
19.8300 13161.6594
19.8400 13151.5918
19.8500 13487.1884
19.8600 12661.4656
19.8700 12520.2164
19.8800 12750.3394
19.8900 13174.6394
19.9000 13314.7510
19.9100 13439.0080
19.9200 13329.8510
19.9300 13285.8814
19.9400 13047.1802
19.9500 13403.2356
19.9600 13200.5754
19.9700 14173.7452
19.9800 13149.6770
19.9900 12981.1760
20.0000 13148.9518
20.0100 13260.5582
20.0200 12926.9506
20.0300 13369.4018
20.0400 12857.0784
20.0500 12854.7950
20.0600 13043.0266
20.0700 12765.4150
20.0800 12909.6770
20.0900 13430.2352
20.1000 12611.7806
20.1100 12586.1246
20.1200 12772.9110
20.1300 13487.5090
20.1400 12918.8688
20.1500 13118.5376
20.1600 13123.9616
20.1700 13734.0934
20.1800 12928.4848
20.1900 12869.5564
20.2000 12576.8368
20.2100 12866.3248
20.2200 12602.7002
20.2300 13100.4232
20.2400 12948.4456
20.2500 12918.4164
20.2600 13045.5224
20.2700 13071.1264
20.2800 12940.2278
20.2900 12837.1004
20.3000 12631.8498
20.3100 12836.0482
20.3200 12626.1604
20.3300 13038.9388
20.3400 12804.8242
20.3500 12587.1256
20.3600 12611.3940
20.3700 13069.6558
20.3800 12447.7490
20.3900 12939.0030
20.4000 12618.0616
20.4100 12515.8870
20.4200 12867.8492
20.4300 12745.9668
20.4400 13104.7086
20.4500 12784.3538
20.4600 12713.7240
20.4700 12586.1922
20.4800 12533.5458
20.4900 13048.1388
20.5000 12681.2094
20.5100 12830.5468
20.5200 12878.7500
20.5300 12584.1236
20.5400 12398.8388
20.5500 12671.8172
20.5600 12795.6722
20.5700 12739.9406
20.5800 12017.1526
20.5900 13264.0926
20.6000 12853.5580
20.6100 12415.3956
20.6200 12416.7350
20.6300 12790.3988
20.6400 12515.3890
20.6500 12582.6114
20.6600 11908.7402
20.6700 12172.1638
20.6800 12613.2634
20.6900 12812.6246
20.7000 12834.2652
20.7100 12711.8212
20.7200 12282.2356
20.7300 13079.3384
20.7400 12073.0704
20.7500 12627.0198
20.7600 12329.3124
20.7700 12139.9952
20.7800 12192.8198
20.7900 12596.6430
20.8000 12864.1334
20.8100 11633.4716
20.8200 11929.2122
20.8300 12487.9582
20.8400 12146.4152
20.8500 12652.7540
20.8600 12028.5222
20.8700 12220.9464
20.8800 12614.7696
20.8900 11702.0874
20.9000 12031.4672
20.9100 12429.6264
20.9200 12292.4618
20.9300 12299.4922
20.9400 12004.2758
20.9500 12507.6636
20.9600 12514.5964
20.9700 12786.4656
20.9800 12565.0098
20.9900 12145.9602
21.0000 11967.1240
21.0100 12656.6178
21.0200 12176.4160
21.0300 12396.6724
21.0400 12161.5014
21.0500 12522.5154
21.0600 12253.0176
21.0700 12078.5310
21.0800 11594.4434
21.0900 11619.8064
21.1000 11702.9338
21.1100 12438.7988
21.1200 12190.5958
21.1300 12128.5546
21.1400 12190.1456
21.1500 12421.7594
21.1600 11868.3578
21.1700 11470.8650
21.1800 12258.4872
21.1900 11942.0036
21.2000 12215.7846
21.2100 12051.3500
21.2200 11484.1316
21.2300 11178.6596
21.2400 11452.5236
21.2500 12085.0090
21.2600 11972.0158
21.2700 11695.2084
21.2800 12105.9334
21.2900 12024.2716
21.3000 12011.0442
21.3100 12285.6982
21.3200 11961.4242
21.3300 11874.3204
21.3400 12163.5636
21.3500 12006.9540
21.3600 12054.6044
21.3700 11891.6284
21.3800 11991.3704
21.3900 12502.2990
21.4000 12417.6962
21.4100 11397.7328
21.4200 11944.8202
21.4300 11818.8940
21.4400 11816.3736
21.4500 11879.2098
21.4600 11693.9998
21.4700 11660.1026
21.4800 11496.4966
21.4900 11855.7268
21.5000 12031.3868
21.5100 11545.0416
21.5200 11642.3438
21.5300 11632.3894
21.5400 11792.5724
21.5500 11735.7268
21.5600 11718.7346
21.5700 11854.6558
21.5800 11646.3248
21.5900 11672.5830
21.6000 11151.8790
21.6100 11714.9682
21.6200 11579.5662
21.6300 11749.3766
21.6400 11961.9832
21.6500 11716.0904
21.6600 11526.8912
21.6700 11764.0030
21.6800 11596.5690
21.6900 11901.4664
21.7000 11049.3880
21.7100 11614.0584
21.7200 11860.7486
21.7300 11752.7604
21.7400 11362.7800
21.7500 11756.2622
21.7600 11661.8326
21.7700 11589.7754
21.7800 11600.8976
21.7900 11826.3868
21.8000 11421.7294
21.8100 11252.8312
21.8200 11578.6336
21.8300 11498.4204
21.8400 11332.5814
21.8500 11354.6158
21.8600 11352.7922
21.8700 11696.0018
21.8800 11328.6548
21.8900 11784.1806
21.9000 11238.5286
21.9100 11132.7986
21.9200 11648.3830
21.9300 11428.3236
21.9400 11291.4022
21.9500 11368.8842
21.9600 11431.5250
21.9700 11433.1454
21.9800 11209.9984
21.9900 11612.2436
22.0000 11783.8916
22.0100 11573.9070
22.0200 12044.8104
22.0300 11385.4916
22.0400 11652.0068
22.0500 11738.9096
22.0600 11833.7354
22.0700 11602.9410
22.0800 11329.3652
22.0900 11364.3668
22.1000 11366.9946
22.1100 11487.3030
22.1200 11735.1448
22.1300 11715.5030
22.1400 11582.1810
22.1500 11731.7042
22.1600 11871.2516
22.1700 11791.8132
22.1800 10943.5246
22.1900 11654.4230
22.2000 11316.6708
22.2100 11457.5952
22.2200 11698.9908
22.2300 11184.0650
22.2400 11373.2096
22.2500 11599.4174
22.2600 11519.4638
22.2700 11480.4924
22.2800 11847.5740
22.2900 11626.4128
22.3000 11489.1438
22.3100 12057.1794
22.3200 11667.9134
22.3300 11566.2346
22.3400 11719.8868
22.3500 11262.2086
22.3600 11544.2888
22.3700 11358.4636
22.3800 11864.1796
22.3900 11387.4390
22.4000 11627.8092
22.4100 11315.0188
22.4200 11799.2692
22.4300 11932.8654
22.4400 11479.8738
22.4500 11642.6570
22.4600 11923.4856
22.4700 12151.3982
22.4800 12196.9524
22.4900 11987.6456
22.5000 11880.9310
22.5100 11722.1582
22.5200 12086.9262
22.5300 10882.1622
22.5400 11363.1950
22.5500 11537.9452
22.5600 12179.0324
22.5700 11289.4116
22.5800 11713.6972
22.5900 11455.7032
22.6000 11843.1982
22.6100 11525.1856
22.6200 11378.1502
22.6300 10904.5272
22.6400 11248.6532
22.6500 11071.2410
22.6600 11643.5954
22.6700 11211.5950
22.6800 11078.4220
22.6900 11418.4270
22.7000 11562.9890
22.7100 10882.3128
22.7200 11041.1954
22.7300 11415.5502
22.7400 11062.5432
22.7500 10795.2172
22.7600 11049.2936
22.7700 11228.3308
22.7800 10999.9854
22.7900 11266.2134
22.8000 11653.0794
22.8100 10945.6926
22.8200 10921.3696
22.8300 11325.7496
22.8400 11023.4620
22.8500 11146.3924
22.8600 10626.8522
22.8700 11180.4940
22.8800 11377.4162
22.8900 10221.3614
22.9000 10638.1486
22.9100 10949.5020
22.9200 10815.3678
22.9300 10692.4210
22.9400 11201.3696
22.9500 11169.4760
22.9600 11163.3414
22.9700 10520.3492
22.9800 10801.5080
22.9900 10790.1010
23.0000 10561.6170
23.0100 11252.8752
23.0200 11049.2936
23.0300 10708.5864
23.0400 10704.1870
23.0500 10951.8360
23.0600 10918.8956
23.0700 11247.4072
23.0800 10781.0954
23.0900 10614.3222
23.1000 11005.6396
23.1100 10682.1020
23.1200 10616.0254
23.1300 10290.7056
23.1400 10457.6668
23.1500 10541.0808
23.1600 10692.4048
23.1700 10721.6822
23.1800 10841.0840
23.1900 10545.7568
23.2000 10711.4412
23.2100 10770.5152
23.2200 10176.6708
23.2300 10629.3466
23.2400 10439.6842
23.2500 10315.5844
23.2600 10251.3648
23.2700 10814.3010
23.2800 11288.0046
23.2900 10246.3704
23.3000 10661.5186
23.3100 10347.5732
23.3200 10269.9276
23.3300 10290.0456
23.3400 10317.2908
23.3500 11051.4778
23.3600 10196.6536
23.3700 10090.1416
23.3800 10759.8974
23.3900 10227.7156
23.4000 10464.7786
23.4100 10382.8524
23.4200 10338.0884
23.4300 10403.5180
23.4400 10105.8854
23.4500 10175.6088
23.4600 10406.7904
23.4700 10127.4830
23.4800 10142.3682
23.4900 10176.5926
23.5000 9979.2968
23.5100 10862.9208
23.5200 10324.9634
23.5300 9974.0284
23.5400 9937.2120
23.5500 10391.2532
23.5600 10109.3954
23.5700 10372.5822
23.5800 10183.9136
23.5900 10161.2492
23.6000 10283.6840
23.6100 10255.4972
23.6200 10155.2530
23.6300 10210.8300
23.6400 10263.4000
23.6500 10376.0628
23.6600 10575.1538
23.6700 10444.5190
23.6800 9861.9442
23.6900 9888.3634
23.7000 10188.3666
23.7100 10033.8142
23.7200 10086.7008
23.7300 10667.1020
23.7400 10566.0986
23.7500 9957.3974
23.7600 10384.4514
23.7700 10028.9892
23.7800 10625.2962
23.7900 10244.6224
23.8000 9763.0436
23.8100 10392.1256
23.8200 10146.2598
23.8300 9869.2066
23.8400 10053.0502
23.8500 9769.7998
23.8600 9996.3028
23.8700 10390.3068
23.8800 10111.5056
23.8900 10529.6272
23.9000 10201.5348
23.9100 9930.8472
23.9200 9964.2204
23.9300 10356.1442
23.9400 10452.8370
23.9500 10176.8726
23.9600 9909.4734
23.9700 9785.8032
23.9800 10014.3034
23.9900 9716.1368
24.0000 9671.6544
24.0100 10064.7338
24.0200 10252.5032
24.0300 10325.2522
24.0400 10155.4760
24.0500 10117.1086
24.0600 9996.7416
24.0700 9835.4794
24.0800 9694.0292
24.0900 9939.1024
24.1000 10024.2212
24.1100 10303.1616
24.1200 10047.3632
24.1300 9765.0782
24.1400 10055.3964
24.1500 10017.2330
24.1600 10133.7720
24.1700 9736.4746
24.1800 9629.6200
24.1900 9832.4260
24.2000 9993.6124
24.2100 9988.7004
24.2200 10257.1786
24.2300 9750.2164
24.2400 9993.3936
24.2500 10098.9086
24.2600 10468.0542
24.2700 9449.4840
24.2800 10288.4432
24.2900 9663.5596
24.3000 9791.5600
24.3100 9982.8256
24.3200 10003.6996
24.3300 10251.8896
24.3400 10002.1516
24.3500 9320.7698
24.3600 9817.6172
24.3700 10256.6122
24.3800 10193.9852
24.3900 9967.4138
24.4000 9744.5068
24.4100 9486.0034
24.4200 9738.0908
24.4300 9895.0008
24.4400 10051.4054
24.4500 9177.6848
24.4600 9599.2082
24.4700 9649.3474
24.4800 9735.6380
24.4900 9489.1414
24.5000 9891.8376
24.5100 9792.5724
24.5200 10058.5246
24.5300 9852.7018
24.5400 9565.4296
24.5500 9533.2544
24.5600 9613.7704
24.5700 9878.4814
24.5800 9999.7404
24.5900 10018.5466
24.6000 9292.0312
24.6100 9627.9606
24.6200 9543.2666
24.6300 9343.1372
24.6400 9494.5150
24.6500 9837.3820
24.6600 9205.0740
24.6700 9163.5734
24.6800 9655.2710
24.6900 9698.2902
24.7000 9532.2176
24.7100 9662.9818
24.7200 9914.8178
24.7300 9279.9340
24.7400 9516.3818
24.7500 9926.3054
24.7600 9768.5156
24.7700 9382.1794
24.7800 9917.4708
24.7900 9646.4096
24.8000 9387.9192
24.8100 9569.5272
24.8200 9390.5916
24.8300 9790.0692
24.8400 9681.1068
24.8500 9797.5432
24.8600 9285.4110
24.8700 9551.5836
24.8800 9600.8838
24.8900 9327.6156
24.9000 8895.9334
24.9100 9316.7798
24.9200 9355.7260
24.9300 9289.2822
24.9400 9825.3654
24.9500 9927.2460
24.9600 9586.3794
24.9700 9792.4854
24.9800 9919.4124
24.9900 9385.5022
25.0000 8990.4224
25.0100 9411.3004
25.0200 9499.5126
25.0300 9600.1204
25.0400 9850.5070
25.0500 9520.9970
25.0600 9296.3762
25.0700 9213.5344
25.0800 9594.8356
25.0900 9575.3012
25.1000 9066.3688
25.1100 9014.5850
25.1200 9333.9746
25.1300 9426.2776
25.1400 9397.9558
25.1500 9311.4298
25.1600 9500.7332
25.1700 9587.8972
25.1800 9225.4532
25.1900 9219.4352
25.2000 9241.3184
25.2100 9500.0602
25.2200 9354.0878
25.2300 9124.4392
25.2400 9284.4734
25.2500 9343.7434
25.2600 9305.9342
25.2700 9362.1712
25.2800 9280.4354
25.2900 9207.6464
25.3000 9242.6310
25.3100 9375.6690
25.3200 8991.5722
25.3300 9192.1158
25.3400 9246.1368
25.3500 9429.9992
25.3600 9844.5484
25.3700 9664.7696
25.3800 9474.6762
25.3900 9615.3824
25.4000 9590.6210
25.4100 9477.7978
25.4200 9452.5912
25.4300 9468.5864
25.4400 9471.8588
25.4500 9391.1638
25.4600 9232.7408
25.4700 9112.7978
25.4800 9225.3580
25.4900 9048.4074
25.5000 9238.3122
25.5100 9063.7280
25.5200 9347.4878
25.5300 9583.6272
25.5400 9436.5942
25.5500 9427.2168
25.5600 9189.3042
25.5700 9011.0880
25.5800 9313.9372
25.5900 9193.0558
25.6000 9190.1490
25.6100 9256.4820
25.6200 9718.2260
25.6300 9501.3598
25.6400 9103.6776
25.6500 9054.2700
25.6600 9487.2868
25.6700 9030.7356
25.6800 9344.7616
25.6900 8890.6210
25.7000 9019.0592
25.7100 9097.7042
25.7200 8970.4060
25.7300 9246.8344
25.7400 9329.2424
25.7500 9209.5288
25.7600 9023.8860
25.7700 9396.3704
25.7800 9415.7154
25.7900 9093.8102
25.8000 9207.5146
25.8100 9034.9568
25.8200 9367.7636
25.8300 9025.9034
25.8400 9155.8350
25.8500 8855.2750
25.8600 8808.1844
25.8700 9176.8880
25.8800 9159.5614
25.8900 9061.7554
25.9000 9153.9014
25.9100 9316.2426
25.9200 9529.2586
25.9300 8690.9970
25.9400 9187.6000
25.9500 9117.3772
25.9600 9553.5474
25.9700 9362.2730
25.9800 8997.9834
25.9900 9182.8238
26.0000 9219.6900
26.0100 9101.7350
26.0200 8989.8632
26.0300 8969.2554
26.0400 8880.4362
26.0500 8380.8992
26.0600 8485.5314
26.0700 9445.5266
26.0800 9019.4776
26.0900 9172.8288
26.1000 9441.0482
26.1100 9051.3362
26.1200 8472.8662
26.1300 8828.5994
26.1400 8929.7696
26.1500 9224.7746
26.1600 8722.8850
26.1700 8373.1690
26.1800 8912.7042
26.1900 9152.6596
26.2000 8655.2304
26.2100 8871.5446
26.2200 9044.6998
26.2300 9011.0758
26.2400 8868.9576
26.2500 9236.8302
26.2600 9120.9376
26.2700 9035.5428
26.2800 8949.3458
26.2900 9276.1638
26.3000 9333.7654
26.3100 8867.9826
26.3200 8432.3364
26.3300 9067.7506
26.3400 9112.9216
26.3500 9145.8992
26.3600 8791.8050
26.3700 9106.0002
26.3800 8913.1096
26.3900 8586.6886
26.4000 9050.2132
26.4100 9004.7762
26.4200 8953.5782
26.4300 9123.1884
26.4400 8696.7382
26.4500 8797.3168
26.4600 9601.0580
26.4700 9043.1412
26.4800 9350.2140
26.4900 9209.1870
26.5000 8839.1902
26.5100 8602.7938
26.5200 9006.9654
26.5300 8617.4430
26.5400 9269.7730
26.5500 9066.9434
26.5600 8959.1472
26.5700 8993.5156
26.5800 9298.7924
26.5900 8870.0220
26.6000 8834.4962
26.6100 9278.6612
26.6200 8831.5446
26.6300 8929.5150
26.6400 8589.8186
26.6500 8506.9312
26.6600 8671.1848
26.6700 8625.5476
26.6800 8898.8208
26.6900 8556.8498
26.7000 8579.7680
26.7100 9006.5730
26.7200 8622.7376
26.7300 8449.5476
26.7400 8482.9516
26.7500 8856.9938
26.7600 8996.5706
26.7700 8968.6214
26.7800 9219.5458
26.7900 8912.7962
26.8000 8563.4530
26.8100 8887.8702
26.8200 8453.9706
26.8300 8670.1596
26.8400 8766.0930
26.8500 8837.2274
26.8600 8656.7220
26.8700 8818.2218
26.8800 8834.1186
26.8900 8629.6720
26.9000 8528.5530
26.9100 8457.5562
26.9200 8789.2716
26.9300 8468.3692
26.9400 8649.5004
26.9500 8460.1822
26.9600 8890.8912
26.9700 8252.3942
26.9800 8584.1854
26.9900 8446.6244
27.0000 8707.7864
27.0100 8777.8720
27.0200 8677.2086
27.0300 8486.5974
27.0400 8725.3466
27.0500 8867.4804
27.0600 8815.8708
27.0700 8802.6204
27.0800 8584.4254
27.0900 8467.9362
27.1000 8488.8534
27.1100 8498.8696
27.1200 8377.7572
27.1300 8383.2250
27.1400 8181.3876
27.1500 8550.2116
27.1600 8503.2992
27.1700 8301.9882
27.1800 8251.3184
27.1900 8093.4676
27.2000 8677.8556
27.2100 8416.9654
27.2200 8352.7140
27.2300 8561.5152
27.2400 8437.3902
27.2500 8585.8440
27.2600 8790.6112
27.2700 8837.2852
27.2800 8512.8606
27.2900 8507.5936
27.3000 8745.0652
27.3100 8533.3488
27.3200 8564.5450
27.3300 8556.0254
27.3400 8562.8312
27.3500 8306.1246
27.3600 8983.6158
27.3700 8810.0528
27.3800 8745.3882
27.3900 8554.3726
27.4000 8405.5680
27.4100 8641.4900
27.4200 8204.0536
27.4300 8145.1156
27.4400 8361.3624
27.4500 8240.0822
27.4600 7895.1864
27.4700 8095.8154
27.4800 8146.2784
27.4900 8568.0826
27.5000 8189.6378
27.5100 8378.4408
27.5200 8333.8476
27.5300 8491.4778
27.5400 8472.6782
27.5500 8376.6658
27.5600 8555.5722
27.5700 8456.4916
27.5800 8408.7118
27.5900 8297.7906
27.6000 8795.7390
27.6100 8741.0442
27.6200 8765.4272
27.6300 8211.9474
27.6400 8529.3010
27.6500 8638.8412
27.6600 8100.5404
27.6700 8210.5274
27.6800 8296.9092
27.6900 8564.1520
27.7000 8290.2800
27.7100 8218.3798
27.7200 8425.0952
27.7300 8661.2826
27.7400 8561.8798
27.7500 8663.7574
27.7600 8538.8078
27.7700 8183.5230
27.7800 8142.0232
27.7900 8399.2782
27.8000 8045.2498
27.8100 8739.4540
27.8200 8576.8694
27.8300 8477.1150
27.8400 8391.9742
27.8500 8620.0512
27.8600 8602.1362
27.8700 8418.0314
27.8800 8377.0818
27.8900 8409.0966
27.9000 8278.2496
27.9100 8305.4916
27.9200 8160.4208
27.9300 8683.0664
27.9400 8410.3108
27.9500 8338.9322
27.9600 8599.0738
27.9700 8611.7448
27.9800 8514.8372
27.9900 8393.5710
28.0000 8424.2522
28.0100 8134.7290
28.0200 8247.1574
28.0300 8650.5966
28.0400 8548.3212
28.0500 8241.7066
28.0600 8100.8838
28.0700 7859.4246
28.0800 8583.1958
28.0900 8538.1494
28.1000 8571.3818
28.1100 8166.9474
28.1200 8402.6464
28.1300 8714.1114
28.1400 8086.7220
28.1500 8194.3050
28.1600 8214.0926
28.1700 8408.9632
28.1800 8117.6098
28.1900 8377.9964
28.2000 8616.7106
28.2100 8303.7410
28.2200 8231.4786
28.2300 8062.3576
28.2400 8168.6646
28.2500 8538.3082
28.2600 8587.9346
28.2700 8611.6430
28.2800 8314.4474
28.2900 8216.3012
28.3000 8011.8506
28.3100 8455.6486
28.3200 8679.4890
28.3300 8387.6522
28.3400 8350.5250
28.3500 8139.0950
28.3600 8725.2360
28.3700 8425.3874
28.3800 8258.9340
28.3900 8148.6076
28.4000 8213.5490
28.4100 8529.4864
28.4200 8278.6124
28.4300 7931.0328
28.4400 7920.3370
28.4500 8056.8156
28.4600 7902.2770
28.4700 8168.7744
28.4800 8154.2806
28.4900 8215.4386
28.5000 8578.3098
28.5100 8266.1076
28.5200 8440.9416
28.5300 8359.2146
28.5400 8229.9340
28.5500 8604.0388
28.5600 8527.8914
28.5700 8597.1712
28.5800 8425.9660
28.5900 8770.5924
28.6000 8670.1652
28.6100 8233.5710
28.6200 8411.3370
28.6300 8403.3430
28.6400 8319.6598
28.6500 8353.3284
28.6600 8963.0102
28.6700 8673.8396
28.6800 8603.3806
28.6900 8621.7920
28.7000 8884.0682
28.7100 8579.2236
28.7200 8353.8582
28.7300 8372.6236
28.7400 8518.0118
28.7500 8712.5040
28.7600 8712.1298
28.7700 8713.8362
28.7800 8150.8008
28.7900 8719.4002
28.8000 8681.9222
28.8100 8286.6708
28.8200 8963.4042
28.8300 8544.0348
28.8400 8145.6266
28.8500 8703.6376
28.8600 8831.4290
28.8700 8512.6334
28.8800 8355.2180
28.8900 8206.4372
28.9000 8423.7256
28.9100 8582.6098
28.9200 8438.4530
28.9300 8462.4560
28.9400 8038.9086
28.9500 7964.7306
28.9600 8095.9952
28.9700 8060.7812
28.9800 8236.1824
28.9900 8258.8850
29.0000 7894.8104
29.0100 8224.3376
29.0200 7901.4884
29.0300 8093.2438
29.0400 7928.3610
29.0500 8440.9074
29.0600 8518.5930
29.0700 8096.6936
29.0800 8339.7778
29.0900 8247.9582
29.1000 7882.4260
29.1100 8100.6942
29.1200 8188.7516
29.1300 8070.1676
29.1400 8090.1180
29.1500 8184.2668
29.1600 8034.4514
29.1700 7994.7722
29.1800 8214.6330
29.1900 8036.7138
29.2000 8102.6074
29.2100 8027.7856
29.2200 8103.4262
29.2300 8024.5110
29.2400 7888.4594
29.2500 7810.9562
29.2600 8177.5066
29.2700 8400.9302
29.2800 8088.9812
29.2900 8203.3642
29.3000 7950.3606
29.3100 7876.8880
29.3200 8154.4938
29.3300 8206.0376
29.3400 8166.7854
29.3500 8227.6416
29.3600 8131.6968
29.3700 8064.9544
29.3800 8198.6824
29.3900 7691.0580
29.4000 8043.3806
29.4100 7911.5356
29.4200 7948.1404
29.4300 8019.8918
29.4400 8136.6886
29.4500 8264.3522
29.4600 8181.2174
29.4700 7940.0138
29.4800 8187.0996
29.4900 7704.6134
29.5000 7759.0258
29.5100 7642.7898
29.5200 7723.8982
29.5300 8237.3194
29.5400 8132.3470
29.5500 8117.0646
29.5600 7721.0092
29.5700 8176.9970
29.5800 8015.5314
29.5900 7755.4288
29.6000 8323.3724
29.6100 8012.5586
29.6200 8313.2714
29.6300 8075.0326
29.6400 8017.9622
29.6500 7938.1982
29.6600 7757.3974
29.6700 7553.2292
29.6800 7499.6094
29.6900 7985.1726
29.7000 7741.9726
29.7100 7741.0742
29.7200 7911.2752
29.7300 8020.6754
29.7400 7860.0074
29.7500 7751.1840
29.7600 7663.0054
29.7700 8068.4920
29.7800 7801.4062
29.7900 7610.9970
29.8000 7970.9960
29.8100 8067.0232
29.8200 7925.2238
29.8300 7539.8894
29.8400 7717.1574
29.8500 7837.4724
29.8600 7586.0294
29.8700 7464.9560
29.8800 7953.9120
29.8900 7889.9764
29.9000 8378.0240
29.9100 7626.7968
29.9200 7843.1340
29.9300 7668.1974
29.9400 7986.1010
29.9500 8180.9310
29.9600 7790.1050
29.9700 7646.9996
29.9800 7577.6848
29.9900 7893.2714
30.0000 7900.9294
30.0100 7506.3754
30.0200 7891.0644
30.0300 7944.6770
30.0400 8087.6050
30.0500 8001.6308
30.0600 7814.6550
30.0700 8087.7686
30.0800 7737.5626
30.0900 7570.6290
30.1000 7703.5206
30.1100 7705.6868
30.1200 7671.4356
30.1300 7986.1930
30.1400 7946.0856
30.1500 7950.1000
30.1600 7654.5622
30.1700 7818.7736
30.1800 7737.1420
30.1900 7752.5570
30.2000 7564.8226
30.2100 7959.7364
30.2200 7909.3734
30.2300 8108.0616
30.2400 8106.0922
30.2500 7474.5028
30.2600 7658.0160
30.2700 7950.4174
30.2800 7945.8422
30.2900 7976.5178
30.3000 7668.8200
30.3100 7679.3880
30.3200 7914.4612
30.3300 7919.1594
30.3400 7665.0260
30.3500 7524.5320
30.3600 7626.2044
30.3700 7624.4278
30.3800 8110.3028
30.3900 7702.1150
30.4000 7695.0382
30.4100 7892.6294
30.4200 7868.4806
30.4300 8196.5080
30.4400 7889.7388
30.4500 7918.1412
30.4600 8226.5520
30.4700 7674.4996
30.4800 7573.8826
30.4900 7762.9476
30.5000 7622.0964
30.5100 7795.0960
30.5200 8039.6428
30.5300 7591.1500
30.5400 7922.2534
30.5500 7807.9582
30.5600 7706.8498
30.5700 8221.2728
30.5800 7731.6366
30.5900 7513.5686
30.6000 7854.1968
30.6100 7580.2286
30.6200 7983.8932
30.6300 7513.8248
30.6400 8095.4532
30.6500 7679.1308
30.6600 7632.4666
30.6700 7714.4270
30.6800 8442.5162
30.6900 7712.2908
30.7000 8048.4358
30.7100 8329.9398
30.7200 7775.0888
30.7300 7668.3756
30.7400 8220.8008
30.7500 8238.6508
30.7600 8000.5932
30.7700 7730.1790
30.7800 8260.2670
30.7900 8126.5292
30.8000 8167.8622
30.8100 8057.9028
30.8200 8054.0560
30.8300 7695.8536
30.8400 8102.2900
30.8500 8245.8154
30.8600 7796.8318
30.8700 7968.8850
30.8800 8080.0204
30.8900 7650.0302
30.9000 8055.4614
30.9100 8247.4602
30.9200 8172.6546
30.9300 7906.6700
30.9400 7901.2574
30.9500 8115.9374
30.9600 7730.3434
30.9700 8185.2320
30.9800 8473.8956
30.9900 7793.7532
31.0000 8198.4546
31.0100 8595.5354
31.0200 8314.4922
31.0300 8143.1372
31.0400 8108.0892
31.0500 8187.9744
31.0600 8585.7048
31.0700 8356.6186
31.0800 8141.7586
31.0900 8277.7800
31.1000 8310.2776
31.1100 8565.2758
31.1200 8371.3256
31.1300 8429.9162
31.1400 8243.5196
31.1500 8350.0366
31.1600 8531.2500
31.1700 8815.1774
31.1800 8548.1518
31.1900 8079.6118
31.2000 8913.8940
31.2100 8486.3746
31.2200 8284.9244
31.2300 8448.5368
31.2400 8620.9620
31.2500 8623.0664
31.2600 8898.2162
31.2700 8459.5768
31.2800 8303.2080
31.2900 8725.2678
31.3000 8950.7478
31.3100 8897.4788
31.3200 8179.2944
31.3300 8596.7750
31.3400 8406.9092
31.3500 8788.7484
31.3600 8816.1564
31.3700 8505.2132
31.3800 8824.0812
31.3900 8555.1360
31.4000 8692.6254
31.4100 8889.2326
31.4200 8881.0766
31.4300 8734.8324
31.4400 9182.5056
31.4500 8928.5084
31.4600 8760.7406
31.4700 8859.7966
31.4800 9028.3488
31.4900 9171.9604
31.5000 9304.6176
31.5100 9121.7382
31.5200 9234.1642
31.5300 9431.5152
31.5400 9331.6016
31.5500 9838.5726
31.5600 9742.6962
31.5700 10200.4558
31.5800 10125.8414
31.5900 10502.7180
31.6000 10154.6386
31.6100 10444.6664
31.6200 11106.7888
31.6300 11116.0766
31.6400 11843.7662
31.6500 12080.1236
31.6600 12903.7590
31.6700 12998.6524
31.6800 12810.9034
31.6900 13990.5126
31.7000 14596.8766
31.7100 14783.2650
31.7200 15669.3344
31.7300 16373.2926
31.7400 17350.3434
31.7500 17752.6578
31.7600 18484.2546
31.7700 19300.5534
31.7800 19796.5658
31.7900 20682.9508
31.8000 21932.5570
31.8100 22661.9336
31.8200 24380.6446
31.8300 24938.6344
31.8400 25860.6690
31.8500 27453.8704
31.8600 28843.7338
31.8700 29082.7540
31.8800 31421.9662
31.8900 31971.8034
31.9000 33213.2292
31.9100 33301.5918
31.9200 33499.7006
31.9300 34079.1210
31.9400 35620.5338
31.9500 35986.5852
31.9600 36137.2396
31.9700 36563.0468
31.9800 36105.7942
31.9900 36788.8542
32.0000 36032.0214
32.0100 36489.6972
32.0200 36608.5254
32.0300 35893.3886
32.0400 36082.7670
32.0500 35686.3640
32.0600 35149.4726
32.0700 35134.9544
32.0800 33813.0664
32.0900 32566.4778
32.1000 32681.3412
32.1100 31904.0266
32.1200 29973.8314
32.1300 29458.5352
32.1400 29345.5892
32.1500 28148.8412
32.1600 27676.3606
32.1700 26437.6758
32.1800 25452.7198
32.1900 25130.5062
32.2000 24735.6542
32.2100 23766.4404
32.2200 22633.9926
32.2300 20915.4264
32.2400 20212.4300
32.2500 18832.6562
32.2600 17572.2428
32.2700 17456.0596
32.2800 16681.2076
32.2900 16041.0074
32.3000 15238.3024
32.3100 14334.1716
32.3200 13717.9476
32.3300 13277.8980
32.3400 13258.1202
32.3500 12736.5544
32.3600 11644.8876
32.3700 11278.6906
32.3800 10726.6048
32.3900 9933.7646
32.4000 9557.8362
32.4100 9745.5274
32.4200 9741.3468
32.4300 9463.4358
32.4400 9181.0498
32.4500 9014.6362
32.4600 8942.1012
32.4700 8657.4910
32.4800 8841.1060
32.4900 8587.5952
32.5000 8462.4642
32.5100 8305.6812
32.5200 8385.6690
32.5300 8342.4040
32.5400 8533.3952
32.5500 7949.4368
32.5600 8105.5338
32.5700 8524.9602
32.5800 7845.0660
32.5900 8087.8418
32.6000 8218.4244
32.6100 8244.0544
32.6200 7775.2498
32.6300 8108.3276
32.6400 8126.0352
32.6500 8142.9192
32.6600 8013.7622
32.6700 7850.8716
32.6800 8066.1638
32.6900 7683.7158
32.7000 7698.5002
32.7100 7696.5470
32.7200 8102.1402
32.7300 7800.6202
32.7400 8007.3812
32.7500 7609.1194
32.7600 8009.1048
32.7700 7788.8282
32.7800 7979.2750
32.7900 7988.4806
32.8000 8113.8826
32.8100 7831.3842
32.8200 7969.2602
32.8300 8016.6202
32.8400 7893.2316
32.8500 7921.8954
32.8600 7592.3780
32.8700 7684.7640
32.8800 7878.2414
32.8900 7818.6068
32.9000 7861.5690
32.9100 8026.1410
32.9200 8001.3518
32.9300 7397.3258
32.9400 7602.9890
32.9500 7753.3544
32.9600 7749.9634
32.9700 7605.2018
32.9800 7650.4850
32.9900 7341.4258
33.0000 7748.8192
33.0100 7879.1350
33.0200 7796.9848
33.0300 7473.8908
33.0400 7821.9410
33.0500 7950.7788
33.0600 7671.2476
33.0700 7754.2838
33.0800 7319.5320
33.0900 7432.3632
33.1000 7548.1892
33.1100 7432.3820
33.1200 7655.3956
33.1300 7202.7540
33.1400 7306.2866
33.1500 7592.1858
33.1600 7549.7600
33.1700 7305.2856
33.1800 7530.9114
33.1900 7264.3742
33.2000 7782.9394
33.2100 7705.7504
33.2200 7685.5518
33.2300 7518.9542
33.2400 7965.3352
33.2500 7506.4706
33.2600 7920.4924
33.2700 7707.1166
33.2800 7679.1308
33.2900 7835.6486
33.3000 7875.9708
33.3100 7619.0120
33.3200 7862.1948
33.3300 7519.9316
33.3400 7607.8898
33.3500 7626.3614
33.3600 7640.3874
33.3700 7571.6080
33.3800 7667.2420
33.3900 7625.0236
33.4000 7740.9872
33.4100 7624.3718
33.4200 7716.7700
33.4300 7564.3474
33.4400 7643.0224
33.4500 7726.1784
33.4600 7578.3512
33.4700 7647.4854
33.4800 7548.5694
33.4900 7660.9366
33.5000 7550.9262
33.5100 7544.3994
33.5200 7201.4526
33.5300 7446.9312
33.5400 7230.2636
33.5500 7547.3616
33.5600 7642.0484
33.5700 7829.7290
33.5800 8170.0570
33.5900 7475.3508
33.6000 7832.8386
33.6100 7673.2544
33.6200 7198.2356
33.6300 7195.5022
33.6400 7368.9844
33.6500 7617.8938
33.6600 7410.1124
33.6700 7215.3850
33.6800 7361.9368
33.6900 7265.9888
33.7000 7504.9170
33.7100 7452.9810
33.7200 7568.1892
33.7300 7683.1380
33.7400 7572.1224
33.7500 7311.3452
33.7600 7251.4754
33.7700 7625.5038
33.7800 7440.8692
33.7900 7326.4584
33.8000 7494.5858
33.8100 7388.8378
33.8200 7423.9502
33.8300 7456.6944
33.8400 7161.8506
33.8500 7609.4694
33.8600 7429.2066
33.8700 7635.1758
33.8800 7467.3650
33.8900 7471.7130
33.9000 7251.0074
33.9100 6892.5276
33.9200 7289.2944
33.9300 7590.8422
33.9400 7652.2876
33.9500 8012.2234
33.9600 7190.1814
33.9700 7326.0896
33.9800 7322.3152
33.9900 7142.9264
34.0000 7464.6516
34.0100 7309.8780
34.0200 7437.4308
34.0300 7063.5694
34.0400 7406.3656
34.0500 7701.2598
34.0600 7435.1954
34.0700 7490.3670
34.0800 7087.4984
34.0900 7263.3798
34.1000 7360.4020
34.1100 7617.6798
34.1200 7484.1560
34.1300 7422.0052
34.1400 7691.0458
34.1500 7709.5476
34.1600 7565.9416
34.1700 7562.3828
34.1800 7072.4544
34.1900 7126.9474
34.2000 7464.8380
34.2100 6903.5538
34.2200 7333.4448
34.2300 7437.2452
34.2400 7099.0422
34.2500 7058.4936
34.2600 7416.1158
34.2700 7526.7016
34.2800 7532.8116
34.2900 7331.2102
34.3000 7271.2232
34.3100 7147.3414
34.3200 7286.5430
34.3300 7741.1840
34.3400 7727.2380
34.3500 7494.2496
34.3600 7249.8974
34.3700 7511.2590
34.3800 7087.6936
34.3900 7193.6368
34.4000 7071.7782
34.4100 7369.7404
34.4200 7836.6618
34.4300 7542.1402
34.4400 7370.5990
34.4500 7225.1742
34.4600 6826.6646
34.4700 7039.5222
34.4800 7255.6316
34.4900 7531.5552
34.5000 7216.8360
34.5100 7574.8584
34.5200 7131.5446
34.5300 7385.7958
34.5400 7139.4376
34.5500 7402.8328
34.5600 7395.8692
34.5700 7332.0222
34.5800 7448.2356
34.5900 7365.3020
34.6000 7503.6662
34.6100 7300.0424
34.6200 7373.7524
34.6300 7456.4608
34.6400 7306.4184
34.6500 7098.5050
34.6600 7131.3378
34.6700 7303.1844
34.6800 7448.8606
34.6900 7382.6498
34.7000 7180.6160
34.7100 7008.2714
34.7200 7025.4174
34.7300 7347.2794
34.7400 7340.0188
34.7500 7473.8884
34.7600 7198.3650
34.7700 7662.5504
34.7800 7669.6272
34.7900 7132.6318
34.8000 7307.6140
34.8100 7299.6012
34.8200 7577.5326
34.8300 7188.4196
34.8400 7449.4882
34.8500 7168.1648
34.8600 7527.5634
34.8700 7316.8302
34.8800 7948.1998
34.8900 7404.2042
34.9000 7148.0362
34.9100 7512.7914
34.9200 7158.9356
34.9300 7526.0636
34.9400 7404.0348
34.9500 7838.8940
34.9600 7141.1238
34.9700 7114.1064
34.9800 7244.1292
34.9900 7290.5126
35.0000 7377.8288
35.0100 7306.1816
35.0200 7299.0136
35.0300 7423.5816
35.0400 7289.1716
35.0500 6971.5934
35.0600 7342.5196
35.0700 7270.6738
35.0800 6798.3284
35.0900 7141.7154
35.1000 7449.4662
35.1100 7280.2400
35.1200 7372.3852
35.1300 7200.8236
35.1400 7432.6262
35.1500 7626.6504
35.1600 7248.7330
35.1700 7532.1028
35.1800 6978.0192
35.1900 7150.3922
35.2000 7094.0380
35.2100 7537.1054
35.2200 7063.4594
35.2300 7365.5396
35.2400 7140.5754
35.2500 7429.2146
35.2600 7231.1588
35.2700 7211.3354
35.2800 7323.7110
35.2900 7411.2500
35.3000 7283.6182
35.3100 7117.7312
35.3200 7080.5688
35.3300 7136.3640
35.3400 7473.0868
35.3500 7141.6210
35.3600 7346.4958
35.3700 7469.1430
35.3800 7225.8464
35.3900 7423.0396
35.4000 7268.7964
35.4100 7346.1540
35.4200 7039.3694
35.4300 7369.3286
35.4400 7063.7606
35.4500 7256.8872
35.4600 7152.4952
35.4700 7337.3552
35.4800 7064.6314
35.4900 7212.7320
35.5000 7177.9460
35.5100 7578.1266
35.5200 6957.4146
35.5300 6983.3464
35.5400 6996.8742
35.5500 7408.5450
35.5600 7167.5660
35.5700 7235.6218
35.5800 7251.5234
35.5900 7262.1362
35.6000 7169.0340
35.6100 7293.1868
35.6200 7287.8728
35.6300 7293.0834
35.6400 7156.7774
35.6500 7038.2968
35.6600 7159.9658
35.6700 7086.4444
35.6800 7360.5208
35.6900 7037.8044
35.7000 7527.8320
35.7100 7531.1108
35.7200 7289.2488
35.7300 7099.6444
35.7400 7374.0616
35.7500 7259.7632
35.7600 7066.9506
35.7700 7509.9610
35.7800 7134.9650
35.7900 7149.2676
35.8000 7421.3134
35.8100 7311.8034
35.8200 7012.3226
35.8300 7649.7282
35.8400 7172.5578
35.8500 7111.8204
35.8600 7172.2444
35.8700 7198.1274
35.8800 7413.4562
35.8900 6936.0782
35.9000 7532.6172
35.9100 7013.4660
35.9200 7178.0290
35.9300 7198.9698
35.9400 7694.5320
35.9500 7579.0966
35.9600 7575.2636
35.9700 7155.5534
35.9800 7219.6948
35.9900 6925.9342
36.0000 7309.5190
36.0100 7364.2024
36.0200 7414.3074
36.0300 7339.4270
36.0400 7169.4360
36.0500 7056.6570
36.0600 7240.4346
36.0700 7225.8650
36.0800 7371.4396
36.0900 7143.7696
36.1000 7169.5532
36.1100 6891.6446
36.1200 7608.9584
36.1300 7375.8040
36.1400 7046.9906
36.1500 7345.5412
36.1600 7429.6298
36.1700 7478.9096
36.1800 7442.1728
36.1900 7069.0136
36.2000 7258.5230
36.2100 7551.9742
36.2200 7405.7706
36.2300 7068.5310
36.2400 7389.7208
36.2500 7275.9538
36.2600 6744.9118
36.2700 7526.6472
36.2800 7278.8794
36.2900 7478.3398
36.3000 7185.3890
36.3100 7090.0114
36.3200 6969.7086
36.3300 7334.4182
36.3400 7098.5644
36.3500 7192.4716
36.3600 6955.1050
36.3700 7428.4472
36.3800 7164.8942
36.3900 6916.6422
36.4000 7431.7236
36.4100 7166.6480
36.4200 7246.4478
36.4300 7498.9388
36.4400 7075.6202
36.4500 6983.6044
36.4600 7348.7468
36.4700 7470.4200
36.4800 7150.4492
36.4900 7125.2320
36.5000 7014.5492
36.5100 7305.3386
36.5200 7021.1264
36.5300 7180.2206
36.5400 7492.8134
36.5500 7149.0250
36.5600 7077.6994
36.5700 7189.0170
36.5800 7140.6404
36.5900 7277.3470
36.6000 7168.1884
36.6100 7341.5894
36.6200 7693.8362
36.6300 7414.7224
36.6400 7595.2864
36.6500 7521.4738
36.6600 7753.3260
36.6700 7867.6562
36.6800 7509.8658
36.6900 7514.0544
36.7000 7366.7082
36.7100 7170.8520
36.7200 7315.9374
36.7300 7499.4262
36.7400 7048.1194
36.7500 7586.1368
36.7600 7802.1150
36.7700 7064.1040
36.7800 7296.6146
36.7900 7360.9822
36.8000 7217.1126
36.8100 7492.9028
36.8200 7139.2732
36.8300 7257.0572
36.8400 7456.3802
36.8500 7316.6308
36.8600 7318.4620
36.8700 7462.6570
36.8800 7444.4874
36.8900 6942.9362
36.9000 7425.2108
36.9100 7454.7754
36.9200 7407.9078
36.9300 7633.9908
36.9400 7022.1192
36.9500 6794.0918
36.9600 6859.7250
36.9700 7721.5820
36.9800 6948.7084
36.9900 7155.3938
37.0000 7274.7208
37.0100 7224.9536
37.0200 7337.8834
37.0300 7556.8554
37.0400 7167.9704
37.0500 7243.5702
37.0600 6992.0240
37.0700 7328.2520
37.0800 7256.2622
37.0900 7372.3210
37.1000 6866.8930
37.1100 7344.2416
37.1200 7371.0294
37.1300 7068.2308
37.1400 6866.0360
37.1500 7364.7738
37.1600 7344.9724
37.1700 7373.7338
37.1800 7160.3622
37.1900 7025.3028
37.2000 7063.0624
37.2100 6977.4902
37.2200 7174.4710
37.2300 7198.0322
37.2400 7311.5040
37.2500 7378.4448
37.2600 6904.4042
37.2700 7272.3160
37.2800 7226.5398
37.2900 6973.3846
37.3000 7310.2190
37.3100 7148.2618
37.3200 7373.7280
37.3300 7522.6708
37.3400 7202.0354
37.3500 7146.2232
37.3600 7098.4684
37.3700 7059.3538
37.3800 7071.7432
37.3900 7246.6578
37.4000 6950.4850
37.4100 6665.7788
37.4200 7239.8918
37.4300 7289.6484
37.4400 7171.8938
37.4500 7226.1988
37.4600 7309.5940
37.4700 7410.7828
37.4800 7003.8298
37.4900 7183.7834
37.5000 7208.9722
37.5100 7063.0030
37.5200 7410.7414
37.5300 7266.2590
37.5400 7560.4996
37.5500 7352.7018
37.5600 7241.1922
37.5700 7357.5912
37.5800 7395.0032
37.5900 7025.7178
37.6000 7444.6614
37.6100 7584.8828
37.6200 7128.2520
37.6300 7319.0698
37.6400 7108.3106
37.6500 7412.3274
37.6600 7177.5806
37.6700 7360.9872
37.6800 7314.8844
37.6900 7098.5384
37.7000 7145.8252
37.7100 7223.6768
37.7200 6960.1228
37.7300 7230.4866
37.7400 7004.8030
37.7500 7275.9652
37.7600 7197.1940
37.7700 7169.3424
37.7800 7116.2126
37.7900 6753.0896
37.8000 7234.8404
37.8100 7199.8168
37.8200 7149.3498
37.8300 6838.0746
37.8400 7327.3518
37.8500 7218.3260
37.8600 7283.2690
37.8700 7163.5392
37.8800 7169.7884
37.8900 7287.6840
37.9000 7591.9434
37.9100 7509.0552
37.9200 6964.4996
37.9300 7234.6900
37.9400 7378.9242
37.9500 7384.4678
37.9600 7355.7796
37.9700 7464.4564
37.9800 7216.9230
37.9900 6963.3798
38.0000 7098.4790
38.0100 7246.9392
38.0200 7463.7452
38.0300 7375.9082
38.0400 7397.4398
38.0500 7356.6228
38.0600 7055.5030
38.0700 7579.3938
38.0800 7046.2304
38.0900 7281.9864
38.1000 7300.5298
38.1100 7286.1140
38.1200 7478.6052
38.1300 7549.5370
38.1400 7101.1426
38.1500 7337.7458
38.1600 7523.2918
38.1700 7408.6500
38.1800 7338.6776
38.1900 7028.0428
38.2000 7137.6270
38.2100 7286.9116
38.2200 7245.1156
38.2300 6943.3504
38.2400 7015.5730
38.2500 6944.2342
38.2600 7012.5562
38.2700 7181.6456
38.2800 7379.7982
38.2900 7431.0206
38.3000 7224.3010
38.3100 7118.8290
38.3200 7221.3468
38.3300 7271.3972
38.3400 6965.4150
38.3500 7111.6464
38.3600 7452.6586
38.3700 7106.9978
38.3800 7330.6062
38.3900 7884.9446
38.4000 7660.0960
38.4100 7105.8536
38.4200 7399.6892
38.4300 6914.8730
38.4400 7116.9474
38.4500 7049.3758
38.4600 7034.4524
38.4700 7376.5308
38.4800 7039.2644
38.4900 7052.2128
38.5000 7210.9122
38.5100 7326.1962
38.5200 7280.1318
38.5300 7327.4910
38.5400 7706.4950
38.5500 7344.5296
38.5600 7415.7170
38.5700 7033.7906
38.5800 6964.8202
38.5900 6958.0502
38.6000 7031.2996
38.6100 7268.1844
38.6200 7295.5396
38.6300 7097.9924
38.6400 7436.4112
38.6500 7372.2722
38.6600 6971.7750
38.6700 7066.5862
38.6800 7147.1086
38.6900 7076.0612
38.7000 7258.4952
38.7100 7253.6296
38.7200 7260.1798
38.7300 7067.5960
38.7400 7264.6998
38.7500 7299.2074
38.7600 7545.5468
38.7700 7040.2898
38.7800 6982.1794
38.7900 7321.0458
38.8000 7351.4200
38.8100 7258.3554
38.8200 7149.4360
38.8300 7234.0494
38.8400 7263.5620
38.8500 7501.7724
38.8600 7328.2626
38.8700 7609.1464
38.8800 7604.5280
38.8900 7378.9250
38.9000 7429.5296
38.9100 6944.9488
38.9200 7129.8942
38.9300 7570.8406
38.9400 7638.4026
38.9500 7489.3034
38.9600 7498.7988
38.9700 7634.7754
38.9800 7696.8416
38.9900 7080.0146
39.0000 7573.5148
39.0100 7418.8362
39.0200 7349.3938
39.0300 7525.3516
39.0400 7268.7890
39.0500 7149.7388
39.0600 7580.5110
39.0700 7152.0662
39.0800 7511.4680
39.0900 7355.6884
39.1000 7607.2404
39.1100 7943.2626
39.1200 7862.3194
39.1300 7704.1822
39.1400 7725.5810
39.1500 7455.3198
39.1600 7913.5808
39.1700 7872.2086
39.1800 7856.4096
39.1900 7964.4816
39.2000 7964.9674
39.2100 7796.1254
39.2200 8467.0808
39.2300 8279.4978
39.2400 8406.9760
39.2500 8669.9968
39.2600 8225.0692
39.2700 8331.1230
39.2800 8642.4446
39.2900 8907.6302
39.3000 8756.1516
39.3100 8963.2080
39.3200 9519.3278
39.3300 9466.9890
39.3400 9798.6312
39.3500 9408.8550
39.3600 9728.0680
39.3700 10226.6992
39.3800 10183.7590
39.3900 9683.4366
39.4000 10575.8480
39.4100 10810.6502
39.4200 11243.2942
39.4300 11319.0186
39.4400 11357.7416
39.4500 12028.0126
39.4600 12205.2490
39.4700 11535.7886
39.4800 11873.1112
39.4900 12222.7686
39.5000 12217.0264
39.5100 12525.1384
39.5200 12168.6874
39.5300 12211.2248
39.5400 12849.7860
39.5500 12754.7746
39.5600 12934.1894
39.5700 12639.2058
39.5800 12639.1024
39.5900 12734.8388
39.6000 12518.1070
39.6100 12985.8056
39.6200 12118.5164
39.6300 12208.4130
39.6400 11982.6806
39.6500 11957.4080
39.6600 12020.7788
39.6700 11389.8510
39.6800 11355.1546
39.6900 11670.4728
39.7000 11353.0860
39.7100 11054.2652
39.7200 10966.2142
39.7300 10591.3142
39.7400 10549.9520
39.7500 10578.8786
39.7600 10143.0452
39.7700 10244.9512
39.7800 10200.6364
39.7900 10145.9228
39.8000 9858.2918
39.8100 9495.2450
39.8200 9609.6290
39.8300 9013.5766
39.8400 8863.1274
39.8500 8774.1536
39.8600 8792.8474
39.8700 8549.6298
39.8800 8312.0890
39.8900 8274.8820
39.9000 8471.8026
39.9100 8408.9632
39.9200 8090.4476
39.9300 7462.9948
39.9400 7949.8422
39.9500 8040.7454
39.9600 7644.8926
39.9700 7530.4524
39.9800 7881.7692
39.9900 7422.3584
40.0000 7727.9786
40.0100 7228.3806
40.0200 7468.7174
40.0300 7482.9452
40.0400 7694.7444
40.0500 7460.3150
40.0600 7272.9736
40.0700 7240.4508
40.0800 7370.1042
40.0900 7110.4842
40.1000 7099.0438
40.1100 7352.1460
40.1200 7122.2086
40.1300 7145.0764
40.1400 7026.3338
40.1500 7531.7294
40.1600 7101.8970
40.1700 7277.0532
40.1800 6999.5354
40.1900 7038.5922
40.2000 7329.9398
40.2100 6949.4596
40.2200 7400.6982
40.2300 7411.8164
40.2400 7355.8846
40.2500 7273.4464
40.2600 7565.8122
40.2700 7302.0240
40.2800 7252.2852
40.2900 7231.8278
40.3000 6966.2524
40.3100 7152.9972
40.3200 6899.2098
40.3300 7107.9826
40.3400 6959.9008
40.3500 6644.4388
40.3600 6839.7542
40.3700 7376.2916
40.3800 7081.1158
40.3900 7023.9112
40.4000 7386.6894
40.4100 6899.0030
40.4200 7022.3380
40.4300 6856.8514
40.4400 7104.0502
40.4500 7070.4818
40.4600 7149.0568
40.4700 7120.5388
40.4800 7092.2054
40.4900 6966.6268
40.5000 6918.6890
40.5100 7037.5668
40.5200 7076.2118
40.5300 7344.1154
40.5400 7021.7952
40.5500 7255.6128
40.5600 7645.9612
40.5700 7364.1202
40.5800 7151.6984
40.5900 7327.5790
40.6000 7315.1570
40.6100 7106.4396
40.6200 7177.7784
40.6300 7168.7418
40.6400 7065.4866
40.6500 7285.7128
40.6600 7168.0502
40.6700 7330.3686
40.6800 7579.7404
40.6900 7005.9806
40.7000 7098.0354
40.7100 7305.9204
40.7200 7409.7460
40.7300 7271.5674
40.7400 7271.1044
40.7500 7129.6500
40.7600 6912.1866
40.7700 7008.6710
40.7800 7150.2312
40.7900 7336.2858
40.8000 7053.6368
40.8100 7439.8080
40.8200 6957.7636
40.8300 6790.9152
40.8400 7164.1464
40.8500 7276.0620
40.8600 7156.1360
40.8700 7274.3872
40.8800 7304.6900
40.8900 7095.8960
40.9000 7231.0556
40.9100 7577.7572
40.9200 7190.8756
40.9300 7275.1822
40.9400 7248.9396
40.9500 7053.9584
40.9600 7255.1896
40.9700 7498.3544
40.9800 7714.5174
40.9900 7353.9112
41.0000 7786.0002
41.0100 7325.4394
41.0200 7616.0066
41.0300 7733.9664
41.0400 7618.6500
41.0500 7606.4640
41.0600 7639.7208
41.0700 7552.0410
41.0800 7717.0914
41.0900 7146.6764
41.1000 7309.9862
41.1100 7041.3028
41.1200 7677.9516
41.1300 7462.4552
41.1400 7386.9588
41.1500 7145.9904
41.1600 7734.6094
41.1700 7495.1798
41.1800 7528.2478
41.1900 7473.7484
41.2000 7910.6022
41.2100 7256.6822
41.2200 7599.6378
41.2300 7328.8290
41.2400 7309.0250
41.2500 7279.9854
41.2600 7263.6768
41.2700 7286.9402
41.2800 7562.0492
41.2900 7578.8786
41.3000 7099.7534
41.3100 7099.3164
41.3200 7531.7244
41.3300 7446.0400
41.3400 7126.9124
41.3500 7768.8574
41.3600 7468.2138
41.3700 7316.0490
41.3800 7242.9606
41.3900 7277.8792
41.4000 7564.9870
41.4100 7285.5412
41.4200 7545.3882
41.4300 7321.2182
41.4400 7229.4662
41.4500 7276.4258
41.4600 6964.9544
41.4700 7047.6228
41.4800 7065.3124
41.4900 7264.8788
41.5000 7303.9078
41.5100 7003.6394
41.5200 7133.6678
41.5300 7189.7600
41.5400 6848.5914
41.5500 7313.8142
41.5600 7368.7028
41.5700 7368.2584
41.5800 7118.7452
41.5900 6985.0318
41.6000 7113.1030
41.6100 7119.8682
41.6200 7073.7736
41.6300 6964.1048
41.6400 7280.1286
41.6500 7228.6612
41.6600 7255.0292
41.6700 6889.9244
41.6800 6746.6354
41.6900 7016.0262
41.7000 7151.6570
41.7100 7129.5826
41.7200 6966.7724
41.7300 7405.2190
41.7400 7132.4332
41.7500 6860.6266
41.7600 6991.5300
41.7700 6838.3504
41.7800 7053.7582
41.7900 7010.0944
41.8000 7096.5056
41.8100 7040.5362
41.8200 6965.5176
41.8300 7042.5090
41.8400 7217.1134
41.8500 6850.4240
41.8600 6799.2180
41.8700 7032.3910
41.8800 7046.1500
41.8900 6979.3440
41.9000 6864.5582
41.9100 6755.3150
41.9200 6880.3686
41.9300 7141.3346
41.9400 7308.9046
41.9500 7261.4746
41.9600 7177.0336
41.9700 6702.2078
41.9800 6867.0500
41.9900 6933.9454
42.0000 7144.8966
42.0100 7088.1966
42.0200 6899.7932
42.0300 6949.6648
42.0400 6540.2258
42.0500 6977.7254
42.0600 6837.6840
42.0700 6965.0114
42.0800 6810.6254
42.0900 7090.3946
42.1000 6630.2340
42.1100 6730.9986
42.1200 6776.5604
42.1300 7647.5066
42.1400 7010.6022
42.1500 7123.3422
42.1600 6898.9908
42.1700 6895.0944
42.1800 6921.8090
42.1900 6826.1580
42.2000 7070.3328
42.2100 7036.7098
42.2200 6871.4534
42.2300 7232.6676
42.2400 6973.6508
42.2500 6844.1846
42.2600 7386.0668
42.2700 7226.3762
42.2800 6994.9796
42.2900 7084.7356
42.3000 7055.4110
42.3100 6872.5424
42.3200 6816.1528
42.3300 7056.4786
42.3400 6960.8008
42.3500 6976.5162
42.3600 6923.4050
42.3700 7232.9020
42.3800 7115.2588
42.3900 6627.2322
42.4000 6581.2552
42.4100 7280.1774
42.4200 7008.8590
42.4300 6908.4252
42.4400 6823.5668
42.4500 7085.9148
42.4600 6929.6322
42.4700 6799.0682
42.4800 7056.3110
42.4900 7347.8996
42.5000 7168.5668
42.5100 6823.6104
42.5200 6834.3132
42.5300 7195.6006
42.5400 7360.0862
42.5500 6860.3352
42.5600 6922.4472
42.5700 6947.0906
42.5800 6961.0066
42.5900 6852.4226
42.6000 6549.4140
42.6100 7254.4532
42.6200 7132.0654
42.6300 6625.7670
42.6400 7148.2846
42.6500 7045.8236
42.6600 6881.3500
42.6700 6941.5894
42.6800 7335.4508
42.6900 6748.6580
42.7000 6965.7642
42.7100 6834.0748
42.7200 7042.7320
42.7300 6883.8298
42.7400 6923.8274
42.7500 7178.3358
42.7600 7076.4680
42.7700 6793.6406
42.7800 6979.3286
42.7900 7019.8754
42.8000 7276.2118
42.8100 7167.9638
42.8200 7225.7226
42.8300 7012.4838
42.8400 6884.5882
42.8500 7206.3184
42.8600 6928.9600
42.8700 6756.0526
42.8800 6797.8072
42.8900 6693.7960
42.9000 7041.6748
42.9100 7252.4104
42.9200 6807.5586
42.9300 6949.9104
42.9400 7174.3816
42.9500 7299.9048
42.9600 7295.2100
42.9700 7296.3908
42.9800 7193.4448
42.9900 7124.6516
43.0000 6923.1860
43.0100 6825.2958
43.0200 6914.3286
43.0300 7081.3240
43.0400 6862.0818
43.0500 6690.7992
43.0600 7065.2662
43.0700 6844.6094
43.0800 7230.7316
43.0900 7396.4266
43.1000 7156.6936
43.1100 7041.8774
43.1200 7017.1370
43.1300 7204.7574
43.1400 7497.9272
43.1500 7081.3102
43.1600 6792.1762
43.1700 6844.3196
43.1800 6753.8530
43.1900 6786.8120
43.2000 7043.4522
43.2100 7056.6106
43.2200 7098.3430
43.2300 7028.3236
43.2400 7064.9520
43.2500 6811.4804
43.2600 6814.7216
43.2700 7422.5928
43.2800 7239.0666
43.2900 7068.2300
43.3000 6525.5054
43.3100 7017.0442
43.3200 6642.6204
43.3300 6841.4250
43.3400 7063.4342
43.3500 7053.4058
43.3600 7086.0002
43.3700 7209.9698
43.3800 6772.7198
43.3900 6718.6874
43.4000 7030.7796
43.4100 6960.4810
43.4200 6760.6930
43.4300 6906.9458
43.4400 6758.0818
43.4500 7242.9956
43.4600 6873.3610
43.4700 6888.6394
43.4800 7209.2488
43.4900 6769.9276
43.5000 6942.4764
43.5100 6839.5232
43.5200 7091.7302
43.5300 6805.0452
43.5400 6987.7530
43.5500 7054.9496
43.5600 6779.6272
43.5700 6899.5370
43.5800 7158.0892
43.5900 7143.7776
43.6000 6658.7512
43.6100 6728.4074
43.6200 7130.3402
43.6300 6686.8318
43.6400 7007.9566
43.6500 6943.6482
43.6600 7148.5652
43.6700 7014.4784
43.6800 6593.2524
43.6900 6543.2438
43.7000 6943.7858
43.7100 6855.3532
43.7200 7362.9044
43.7300 7050.1832
43.7400 7019.3010
43.7500 7639.0144
43.7600 7061.1296
43.7700 6749.3180
43.7800 6702.7092
43.7900 6915.0032
43.8000 7428.4262
43.8100 7235.6006
43.8200 7144.5622
43.8300 7256.3492
43.8400 7021.4706
43.8500 6965.7902
43.8600 7110.0040
43.8700 7064.2212
43.8800 6871.5438
43.8900 6805.4012
43.9000 6869.9878
43.9100 7160.4192
43.9200 6869.7844
43.9300 6827.9688
43.9400 6916.7986
43.9500 7155.5038
43.9600 7126.3298
43.9700 7442.4902
43.9800 7072.9004
43.9900 6898.0518
44.0000 6754.0654
44.0100 6886.1882
44.0200 7132.8834
44.0300 7165.5086
44.0400 7207.8020
44.0500 6961.2916
44.0600 6608.9742
44.0700 6812.0914
44.0800 7263.6068
44.0900 7104.1000
44.1000 7296.7644
44.1100 7022.5180
44.1200 7038.0062
44.1300 6823.4680
44.1400 6919.6998
44.1500 7070.0822
44.1600 6857.3210
44.1700 7170.4728
44.1800 6634.6090
44.1900 6884.5532
44.2000 7089.4654
44.2100 7257.9370
44.2200 7213.8118
44.2300 7118.5352
44.2400 7442.3812
44.2500 7308.7818
44.2600 7307.1402
44.2700 7040.9016
44.2800 6764.9434
44.2900 6904.6062
44.3000 6799.9414
44.3100 6613.3162
44.3200 6730.3398
44.3300 6856.4444
44.3400 6901.8042
44.3500 7135.5070
44.3600 6917.5090
44.3700 7085.9270
44.3800 6842.3746
44.3900 7162.6334
44.4000 6966.9970
44.4100 7103.0958
44.4200 7307.2208
44.4300 7296.1028
44.4400 7064.7274
44.4500 7087.7426
44.4600 7221.7618
44.4700 7287.7930
44.4800 6856.2606
44.4900 7385.0480
44.5000 7039.3734
44.5100 7084.0690
44.5200 7279.0966
44.5300 7055.7520
44.5400 7020.1660
44.5500 6973.0022
44.5600 7113.9714
44.5700 7034.5752
44.5800 7175.2450
44.5900 7083.4358
44.6000 7439.7844
44.6100 7241.4592
44.6200 6771.3408
44.6300 7104.5142
44.6400 7192.8564
44.6500 7131.4144
44.6600 7214.7974
44.6700 7053.1380
44.6800 6839.3554
44.6900 7239.7696
44.7000 7234.7778
44.7100 6765.8638
44.7200 7354.0422
44.7300 7225.8430
44.7400 6690.0432
44.7500 6959.7714
44.7600 7279.8300
44.7700 6986.4632
44.7800 6815.8276
44.7900 7210.7080
44.8000 7137.6806
44.8100 7259.1862
44.8200 7039.1292
44.8300 6929.5378
44.8400 7121.5796
44.8500 6934.3848
44.8600 7152.0328
44.8700 7298.8192
44.8800 7471.8164
44.8900 7419.2432
44.9000 7255.6982
44.9100 7185.1010
44.9200 6947.0158
44.9300 7195.0276
44.9400 6955.9498
44.9500 6735.2214
44.9600 7673.3912
44.9700 7089.0348
44.9800 7107.5782
44.9900 7433.4244
45.0000 7348.9332
45.0100 7288.6280
45.0200 7372.0826
45.0300 7276.1848
45.0400 6920.4070
45.0500 6906.2680
45.0600 7274.8860
45.0700 6978.5612
45.0800 7035.2376
45.0900 7199.5492
45.1000 7163.2048
45.1100 7312.2460
45.1200 7202.3536
45.1300 7173.2332
45.1400 7242.9890
45.1500 7592.8296
45.1600 7474.6394
45.1700 7370.8554
45.1800 7127.2290
45.1900 6772.8650
45.2000 7375.9090
45.2100 7323.7094
45.2200 7433.4326
45.2300 7248.2942
45.2400 7178.7264
45.2500 7526.5486
45.2600 7072.2494
45.2700 7490.8114
45.2800 7338.9478
45.2900 7210.4524
45.3000 6790.1436
45.3100 6929.4864
45.3200 7605.0366
45.3300 7451.6544
45.3400 7410.8300
45.3500 7707.4674
45.3600 7634.9536
45.3700 7547.8736
45.3800 7776.4030
45.3900 7564.6012
45.4000 7634.2830
45.4100 7955.0342
45.4200 7987.6774
45.4300 7876.2338
45.4400 8066.0368
45.4500 7896.8238
45.4600 8175.1944
45.4700 7971.7774
45.4800 8324.2400
45.4900 8181.7530
45.5000 8105.4508
45.5100 8043.1884
45.5200 8553.6752
45.5300 8231.9498
45.5400 8456.2094
45.5500 8345.2408
45.5600 8160.9252
45.5700 8603.7598
45.5800 8477.6554
45.5900 8517.8052
45.6000 8580.4582
45.6100 8326.5706
45.6200 8452.8914
45.6300 8644.0324
45.6400 9152.6180
45.6500 8849.2000
45.6600 9138.3618
45.6700 8974.2652
45.6800 9444.3440
45.6900 9640.7308
45.7000 9603.7688
45.7100 10160.4688
45.7200 9717.5488
45.7300 9776.5332
45.7400 10472.3528
45.7500 10600.0976
45.7600 10959.9862
45.7700 11111.6910
45.7800 10803.5498
45.7900 11576.0856
45.8000 12034.0056
45.8100 12210.6006
45.8200 11704.4288
45.8300 12319.3726
45.8400 12768.6150
45.8500 13410.5110
45.8600 13469.3302
45.8700 13832.3764
45.8800 15037.8580
45.8900 14840.5144
45.9000 15199.1276
45.9100 15846.6000
45.9200 15912.8728
45.9300 16104.7330
45.9400 16524.6044
45.9500 17300.4346
45.9600 17368.3952
45.9700 17879.4776
45.9800 18075.9310
45.9900 18511.6520
46.0000 18689.8828
46.0100 18977.0410
46.0200 19575.0276
46.0300 20050.3386
46.0400 20031.1930
46.0500 19659.0820
46.0600 19772.7002
46.0700 20337.4414
46.0800 20145.9034
46.0900 20128.3790
46.1000 20312.6156
46.1100 19879.0202
46.1200 20474.2302
46.1300 19678.2764
46.1400 20001.4420
46.1500 19503.8232
46.1600 19785.4330
46.1700 19053.8510
46.1800 19397.2330
46.1900 18967.2444
46.2000 18079.0202
46.2100 17284.4124
46.2200 17581.2516
46.2300 16596.1002
46.2400 16979.4108
46.2500 16645.3142
46.2600 15861.6618
46.2700 15378.7776
46.2800 15226.6048
46.2900 14295.0292
46.3000 14132.9460
46.3100 13512.8248
46.3200 13609.0926
46.3300 13590.8382
46.3400 12429.2050
46.3500 12253.7646
46.3600 12165.9970
46.3700 11989.3432
46.3800 11306.0344
46.3900 11242.1516
46.4000 11110.6868
46.4100 10124.4670
46.4200 10346.5388
46.4300 10048.8476
46.4400 9297.2282
46.4500 9801.1532
46.4600 8929.4392
46.4700 8871.0962
46.4800 8764.5288
46.4900 8636.5486
46.5000 8507.3486
46.5100 8301.3142
46.5200 8271.4680
46.5300 8312.1606
46.5400 8535.3516
46.5500 8013.7524
46.5600 7699.0984
46.5700 7643.8184
46.5800 7993.1706
46.5900 7805.3336
46.6000 7740.6542
46.6100 7881.4892
46.6200 7276.2158
46.6300 7245.1318
46.6400 7305.2604
46.6500 7295.6502
46.6600 7493.3228
46.6700 7518.8330
46.6800 7353.5994
46.6900 7483.4464
46.7000 7290.1392
46.7100 7021.2166
46.7200 7268.0868
46.7300 7171.4208
46.7400 7098.5782
46.7500 7547.2078
46.7600 7426.4258
46.7700 7316.9962
46.7800 7143.0648
46.7900 7524.6444
46.8000 7118.2194
46.8100 7188.4848
46.8200 6790.4496
46.8300 7387.2534
46.8400 7778.3594
46.8500 7226.1410
46.8600 7092.7734
46.8700 6967.9598
46.8800 7217.3876
46.8900 7093.3562
46.9000 7037.0540
46.9100 7171.9296
46.9200 7332.4878
46.9300 7485.7422
46.9400 7325.4736
46.9500 7020.7406
46.9600 7145.8220
46.9700 7325.0520
46.9800 7242.7604
46.9900 6925.1082
47.0000 6985.9026
47.0100 7393.4530
47.0200 7437.2558
47.0300 7075.5738
47.0400 7015.6926
47.0500 7128.4262
47.0600 7243.1698
47.0700 7439.4776
47.0800 6988.2528
47.0900 7040.9488
47.1000 6905.1114
47.1100 7155.8756
47.1200 7177.8344
47.1300 6947.5032
47.1400 7059.2758
47.1500 7342.9760
47.1600 7183.9648
47.1700 6815.0618
47.1800 7149.3124
47.1900 7096.4958
47.2000 7158.5904
47.2100 7206.1272
47.2200 6871.5292
47.2300 7106.6708
47.2400 7091.8238
47.2500 6964.4466
47.2600 7123.7118
47.2700 6939.5776
47.2800 6980.4664
47.2900 6957.9704
47.3000 6783.8302
47.3100 6954.5060
47.3200 7195.4956
47.3300 7085.7698
47.3400 7138.0436
47.3500 6640.7486
47.3600 6966.3370
47.3700 6996.9800
47.3800 7061.5014
47.3900 7164.2464
47.4000 6858.1860
47.4100 6826.9450
47.4200 6888.1804
47.4300 7078.0240
47.4400 6568.0172
47.4500 7083.4684
47.4600 6933.0136
47.4700 7002.8866
47.4800 7272.7588
47.4900 7261.6284
47.5000 6929.9634
47.5100 6916.0384
47.5200 7049.7730
47.5300 6895.8928
47.5400 7269.7900
47.5500 7073.3748
47.5600 7074.7876
47.5700 7334.0812
47.5800 6952.0328
47.5900 7269.8608
47.6000 6846.9458
47.6100 7356.4070
47.6200 6929.3270
47.6300 6796.1080
47.6400 6717.5570
47.6500 7029.3920
47.6600 7112.7572
47.6700 6922.2518
47.6800 6854.8730
47.6900 6803.8066
47.7000 6951.5414
47.7100 6898.5922
47.7200 6753.9270
47.7300 6787.0846
47.7400 6822.8710
47.7500 6839.1032
47.7600 6558.7780
47.7700 6945.9432
47.7800 6918.3626
47.7900 6934.0064
47.8000 6992.4398
47.8100 6982.8744
47.8200 7166.0522
47.8300 7184.2862
47.8400 6791.9262
47.8500 6961.9540
47.8600 7129.3222
47.8700 6684.6700
47.8800 7085.7154
47.8900 6649.2606
47.9000 6914.9340
47.9100 6709.1076
47.9200 6591.8050
47.9300 6998.8118
47.9400 6689.7212
47.9500 6454.8840
47.9600 6536.3334
47.9700 6804.0438
47.9800 7278.7224
47.9900 6732.7702
48.0000 7038.4400
48.0100 7082.5554
48.0200 6819.6204
48.0300 6773.9872
48.0400 6383.7292
48.0500 6665.0056
48.0600 6791.8558
48.0700 6911.0522
48.0800 6455.1258
48.0900 6845.4980
48.1000 6843.6410
48.1100 6721.8062
48.1200 7122.1298
48.1300 6674.3196
48.1400 6982.3470
48.1500 6456.7884
48.1600 6672.2828
48.1700 6828.9770
48.1800 6802.1330
48.1900 7009.4434
48.2000 7145.6364
48.2100 7093.4774
48.2200 6769.9536
48.2300 7239.0112
48.2400 6735.8422
48.2500 6484.1418
48.2600 6972.7530
48.2700 6708.4078
48.2800 6633.6840
48.2900 7163.7882
48.3000 7005.7764
48.3100 6841.1946
48.3200 6711.9532
48.3300 6917.6718
48.3400 7066.6602
48.3500 7089.2164
48.3600 6588.6926
48.3700 6943.3928
48.3800 6759.0284
48.3900 6644.0906
48.4000 6990.7316
48.4100 7021.6602
48.4200 7126.6456
48.4300 6862.2322
48.4400 6766.5336
48.4500 6754.3942
48.4600 6603.9364
48.4700 6503.7858
48.4800 6871.3868
48.4900 6715.9270
48.5000 6969.2652
48.5100 6775.9700
48.5200 6744.6826
48.5300 6555.5952
48.5400 7195.6788
48.5500 6930.2922
48.5600 6689.9398
48.5700 6822.6420
48.5800 6979.4148
48.5900 6852.7408
48.6000 6964.6004
48.6100 6877.8012
48.6200 6652.6486
48.6300 6613.2898
48.6400 6437.1412
48.6500 6706.0694
48.6600 6695.2844
48.6700 6704.5804
48.6800 6980.8366
48.6900 6702.6900
48.7000 7125.5208
48.7100 6898.2512
48.7200 6874.5222
48.7300 6995.3100
48.7400 6706.0388
48.7500 6768.6364
48.7600 6914.0788
48.7700 6753.8574
48.7800 6749.3794
48.7900 6771.2472
48.8000 7204.9976
48.8100 6574.0808
48.8200 6773.2836
48.8300 6684.6648
48.8400 6892.6132
48.8500 6883.4026
48.8600 6515.7812
48.8700 6776.3098
48.8800 6905.5518
48.8900 6876.5690
48.9000 6444.2208
48.9100 6812.3270
48.9200 6973.6744
48.9300 6867.8548
48.9400 6476.3176
48.9500 6684.4882
48.9600 6695.3280
48.9700 6818.9002
48.9800 6556.0522
48.9900 7041.1564
49.0000 6991.7424
49.0100 6684.3298
49.0200 6853.4050
49.0300 7125.3052
49.0400 6707.7966
49.0500 6869.9202
49.0600 6529.9084
49.0700 6807.0284
49.0800 6564.3352
49.0900 6506.1772
49.1000 6639.4206
49.1100 6723.7064
49.1200 6693.8500
49.1300 7241.1312
49.1400 7037.0686
49.1500 7176.2354
49.1600 6771.3338
49.1700 6480.2612
49.1800 6735.4256
49.1900 6509.4746
49.2000 6632.4854
49.2100 6891.4136
49.2200 6735.5262
49.2300 6724.4340
49.2400 6710.0012
49.2500 7238.8290
49.2600 6869.3546
49.2700 7059.8730
49.2800 6827.4496
49.2900 6804.3930
49.3000 6481.5262
49.3100 6875.3450
49.3200 6752.4226
49.3300 6777.9508
49.3400 6764.6032
49.3500 7064.0136
49.3600 6772.4048
49.3700 6823.1324
49.3800 7130.9464
49.3900 6583.5078
49.4000 6910.9994
49.4100 6843.9412
49.4200 6492.5968
49.4300 7041.3510
49.4400 6470.1852
49.4500 6810.7922
49.4600 6607.7666
49.4700 6989.0446
49.4800 6624.6830
49.4900 6321.6866
49.5000 6474.4198
49.5100 6735.5278
49.5200 6742.3836
49.5300 6595.0098
49.5400 6442.7034
49.5500 6942.5944
49.5600 6802.1786
49.5700 6632.9908
49.5800 6715.2144
49.5900 6256.5556
49.6000 6659.4560
49.6100 6814.2732
49.6200 6908.4724
49.6300 6556.2886
49.6400 6987.1614
49.6500 6596.8506
49.6600 6958.7654
49.6700 6510.7010
49.6800 6375.3516
49.6900 6878.5026
49.7000 6714.1570
49.7100 6541.3492
49.7200 6643.2588
49.7300 6360.8186
49.7400 6730.5912
49.7500 6800.1604
49.7600 6702.0540
49.7700 6533.9168
49.7800 6969.7094
49.7900 6558.5112
49.8000 6758.9388
49.8100 6832.6156
49.8200 6748.5782
49.8300 6803.7472
49.8400 6776.8380
49.8500 6630.9920
49.8600 6613.8274
49.8700 6641.4078
49.8800 7030.2978
49.8900 6598.3288
49.9000 6877.2738
49.9100 6840.8626
49.9200 6863.2064
49.9300 6902.7824
49.9400 6958.7158
49.9500 6938.0372
49.9600 6987.9720
49.9700 7272.8214
49.9800 6935.8700
49.9900 6793.6238
50.0000 6285.3650
50.0100 6753.5164
50.0200 6911.6252
50.0300 7097.5024
50.0400 6671.3908
50.0500 6612.2908
50.0600 6920.9856
50.0700 6686.5414
50.0800 6426.7122
50.0900 6905.7104
50.1000 6602.4552
50.1100 6741.7518
50.1200 6401.9654
50.1300 6974.4906
50.1400 6799.9686
50.1500 6846.4526
50.1600 6925.3320
50.1700 6837.6522
50.1800 6469.0532
50.1900 6698.0424
50.2000 6894.9348
50.2100 6716.7696
50.2200 6980.1954
50.2300 6654.3844
50.2400 7134.4506
50.2500 6550.3072
50.2600 6513.2784
50.2700 6540.8818
50.2800 6993.1112
50.2900 6966.6992
50.3000 6647.9818
50.3100 6693.9954
50.3200 6940.0180
50.3300 6780.1254
50.3400 6940.8440
50.3500 6571.1646
50.3600 6585.2112
50.3700 6748.7528
50.3800 6648.9082
50.3900 6679.9980
50.4000 6741.4018
50.4100 6832.5684
50.4200 6725.4398
50.4300 6725.3390
50.4400 7078.7924
50.4500 6470.5904
50.4600 6659.9272
50.4700 6926.5722
50.4800 6497.8434
50.4900 6983.9828
50.5000 7172.3064
50.5100 6803.5678
50.5200 7062.1744
50.5300 6646.5178
50.5400 6329.8286
50.5500 7025.5362
50.5600 6903.7638
50.5700 6987.1736
50.5800 6915.1392
50.5900 6848.1404
50.6000 6500.1832
50.6100 6860.2898
50.6200 6656.9954
50.6300 6485.4988
50.6400 6611.7130
50.6500 7095.0456
50.6600 6740.8764
50.6700 6903.5556
50.6800 6500.5468
50.6900 6746.0592
50.7000 6716.3640
50.7100 6871.9116
50.7200 6912.0906
50.7300 6688.6870
50.7400 6716.2552
50.7500 7033.8420
50.7600 6733.8016
50.7700 6858.6858
50.7800 6729.7160
50.7900 6768.9474
50.8000 6842.0784
50.8100 6760.2234
50.8200 6758.3566
50.8300 6804.9158
50.8400 6964.2740
50.8500 6931.6578
50.8600 6707.2518
50.8700 6642.8870
50.8800 6684.8494
50.8900 6631.1654
50.9000 6502.9732
50.9100 6803.8412
50.9200 6911.7448
50.9300 6707.3812
50.9400 6819.3620
50.9500 7146.3078
50.9600 6852.3030
50.9700 6895.5534
50.9800 6888.1054
50.9900 7254.7510
51.0000 6504.7932
51.0100 6550.5144
51.0200 6619.3856
51.0300 6807.0410
51.0400 6781.0128
51.0500 6818.0676
51.0600 7085.1424
51.0700 6535.7808
51.0800 7042.2216
51.0900 6698.2744
51.1000 6593.1164
51.1100 6573.5104
51.1200 6750.0000
51.1300 6875.0570
51.1400 7053.5084
51.1500 7069.2146
51.1600 6989.8136
51.1700 6615.3238
51.1800 6863.9534
51.1900 6840.0520
51.2000 6931.8278
51.2100 6661.4494
51.2200 7108.6824
51.2300 6861.9392
51.2400 6983.5140
51.2500 6977.0996
51.2600 6657.8316
51.2700 7050.4288
51.2800 6734.9674
51.2900 7059.1422
51.3000 7208.4456
51.3100 6846.1556
51.3200 6896.3672
51.3300 6970.2164
51.3400 6945.6828
51.3500 6819.8144
51.3600 7050.8496
51.3700 6625.9696
51.3800 6813.7434
51.3900 7185.1326
51.4000 6977.1940
51.4100 6798.1100
51.4200 7015.5900
51.4300 6918.9070
51.4400 6968.0900
51.4500 6807.9488
51.4600 7252.2478
51.4700 7422.3518
51.4800 7134.9088
51.4900 6908.7330
51.5000 6873.4994
51.5100 7052.1508
51.5200 7147.6472
51.5300 7128.7288
51.5400 7077.1036
51.5500 7095.7446
51.5600 6839.5606
51.5700 6812.8638
51.5800 7236.4436
51.5900 6742.3650
51.6000 6801.4208
51.6100 7159.7216
51.6200 7148.3594
51.6300 6905.1246
51.6400 6864.0820
51.6500 6773.6516
51.6600 6967.7742
51.6700 6939.0266
51.6800 6559.3506
51.6900 7194.9520
51.7000 7183.7386
51.7100 6759.9776
51.7200 7236.9556
51.7300 6839.3766
51.7400 7012.0476
51.7500 7372.5660
51.7600 7474.7274
51.7700 7102.5732
51.7800 7207.8344
51.7900 7132.0362
51.8000 7498.1876
51.8100 7021.7050
51.8200 7196.8156
51.8300 6846.2540
51.8400 6685.6576
51.8500 7110.0764
51.8600 7904.6264
51.8700 7531.6048
51.8800 7369.6150
51.8900 6898.9852
51.9000 7209.1732
51.9100 7789.3294
51.9200 7567.9646
51.9300 7101.5316
51.9400 7430.1262
51.9500 7649.2546
51.9600 7502.1566
51.9700 7465.0684
51.9800 7334.4360
51.9900 7279.3620
52.0000 6900.1042
52.0100 7196.8238
52.0200 7038.1560
52.0300 7226.4900
52.0400 7238.6280
52.0500 7321.8108
52.0600 7465.2180
52.0700 7109.4646
52.0800 7166.4062
52.0900 7162.4536
52.1000 7358.7434
52.1100 7290.2652
52.1200 7330.6998
52.1300 7215.5616
52.1400 6917.0028
52.1500 7010.2206
52.1600 7258.6776
52.1700 7364.0992
52.1800 7316.8978
52.1900 6987.3160
52.2000 6968.9486
52.2100 6839.1544
52.2200 6692.9272
52.2300 7093.2610
52.2400 6971.3558
52.2500 6810.7190
52.2600 6978.4994
52.2700 6815.7080
52.2800 6905.3744
52.2900 6742.4610
52.3000 6978.6312
52.3100 7034.0844
52.3200 6473.4270
52.3300 6699.7718
52.3400 7069.3790
52.3500 7152.2152
52.3600 7205.6380
52.3700 6787.0512
52.3800 6949.8868
52.3900 6776.6622
52.4000 6912.2112
52.4100 6646.9242
52.4200 6856.7122
52.4300 6729.1386
52.4400 6972.0858
52.4500 6783.1774
52.4600 7298.4530
52.4700 7113.2600
52.4800 6590.1888
52.4900 6870.2596
52.5000 6570.8548
52.5100 6634.3074
52.5200 6792.3628
52.5300 6618.7402
52.5400 6767.0512
52.5500 6696.0092
52.5600 6826.8718
52.5700 6826.4812
52.5800 6836.6438
52.5900 6622.3356
52.6000 6338.5782
52.6100 6316.9072
52.6200 6417.3250
52.6300 6557.7222
52.6400 6952.2656
52.6500 6369.5268
52.6600 6396.3338
52.6700 6725.3024
52.6800 6757.2680
52.6900 6629.0214
52.7000 6567.9052
52.7100 6808.1234
52.7200 6821.2468
52.7300 6431.7932
52.7400 6424.2126
52.7500 6957.9142
52.7600 6911.7700
52.7700 6509.7942
52.7800 6669.0124
52.7900 6736.2094
52.8000 6742.6590
52.8100 6708.8212
52.8200 6525.7340
52.8300 6835.4638
52.8400 7059.3498
52.8500 6916.2736
52.8600 6857.2738
52.8700 6460.8846
52.8800 6702.4992
52.8900 6323.1674
52.9000 6474.0942
52.9100 6905.7014
52.9200 6810.5152
52.9300 6369.7840
52.9400 6706.2964
52.9500 6438.3406
52.9600 6896.2630
52.9700 7147.3396
52.9800 6726.7676
52.9900 6595.0240
53.0000 6811.9160
53.0100 6468.1962
53.0200 6694.5650
53.0300 6557.8312
53.0400 6477.4792
53.0500 6741.3640
53.0600 6761.4844
53.0700 7112.9688
53.0800 7054.6866
53.0900 6519.4148
53.1000 6610.3382
53.1100 6821.5292
53.1200 6696.4950
53.1300 6885.3614
53.1400 6578.1938
53.1500 6852.5268
53.1600 6830.6788
53.1700 6396.1980
53.1800 6531.2110
53.1900 6395.6738
53.2000 6731.1222
53.2100 6871.1336
53.2200 6753.0510
53.2300 6618.1762
53.2400 6669.3172
53.2500 6888.2374
53.2600 6757.0358
53.2700 6919.7086
53.2800 6789.7404
53.2900 6873.7208
53.3000 6587.4960
53.3100 6634.2176
53.3200 6654.7326
53.3300 6621.4534
53.3400 6963.9934
53.3500 6823.4456
53.3600 6890.5696
53.3700 6853.7688
53.3800 6968.1974
53.3900 6399.6638
53.4000 6660.7564
53.4100 6670.6640
53.4200 6491.3420
53.4300 6598.6044
53.4400 6683.5424
53.4500 6716.6076
53.4600 6397.5756
53.4700 6433.4270
53.4800 6688.1580
53.4900 6595.3878
53.5000 6763.3756
53.5100 7027.5114
53.5200 6333.5628
53.5300 6541.0428
53.5400 6563.9376
53.5500 7017.7556
53.5600 6536.6236
53.5700 6560.7108
53.5800 6332.5538
53.5900 6417.5904
53.6000 6730.5228
53.6100 6530.2910
53.6200 6433.8156
53.6300 6804.8324
53.6400 6428.2032
53.6500 6624.1264
53.6600 6479.2972
53.6700 6539.6398
53.6800 6728.5506
53.6900 6627.1130
53.7000 6689.6290
53.7100 6642.2754
53.7200 6461.3306
53.7300 6465.4932
53.7400 6632.4170
53.7500 6949.0852
53.7600 6908.4440
53.7700 7034.5752
53.7800 6519.6150
53.7900 6735.0288
53.8000 6398.3630
53.8100 6710.7406
53.8200 6986.2248
53.8300 6836.0800
53.8400 6780.7072
53.8500 6921.4200
53.8600 6466.1174
53.8700 6375.8610
53.8800 6259.6062
53.8900 6751.7980
53.9000 6518.3712
53.9100 6462.7388
53.9200 6665.0122
53.9300 6580.2254
53.9400 6522.0842
53.9500 6604.6086
53.9600 6778.8846
53.9700 6724.5232
53.9800 6758.2776
53.9900 6580.4188
54.0000 6206.1482
54.0100 6813.5230
54.0200 6501.5214
54.0300 6913.6752
54.0400 6841.2744
54.0500 6633.5092
54.0600 6703.6276
54.0700 6848.4424
54.0800 6586.5352
54.0900 6513.6182
54.1000 6697.0036
54.1100 6469.5158
54.1200 6613.3350
54.1300 6541.9938
54.1400 6436.5556
54.1500 6459.2306
54.1600 6552.5752
54.1700 6553.2230
54.1800 6524.8026
54.1900 6706.0958
54.2000 6766.0746
54.2100 6614.7938
54.2200 6980.6022
54.2300 6787.3042
54.2400 6724.3994
54.2500 6770.3324
54.2600 6660.7670
54.2700 6530.8288
54.2800 6739.6660
54.2900 6819.5068
54.3000 6241.4754
54.3100 6343.2596
54.3200 6841.1930
54.3300 6483.6470
54.3400 6682.3958
54.3500 6678.0372
54.3600 6577.4434
54.3700 6489.7982
54.3800 6708.8578
54.3900 6748.5160
54.4000 6659.8100
54.4100 6519.2480
54.4200 6656.0686
54.4300 6576.8640
54.4400 6733.5734
54.4500 6646.3896
54.4600 6532.1114
54.4700 6756.4766
54.4800 6640.7512
54.4900 6635.0000
54.5000 6691.0258
54.5100 6767.4914
54.5200 6956.0442
54.5300 6863.0868
54.5400 7115.7356
54.5500 6871.8368
54.5600 6456.1258
54.5700 7064.7380
54.5800 6742.5448
54.5900 6521.9336
54.6000 6725.1994
54.6100 6765.3706
54.6200 6805.6694
54.6300 6778.1400
54.6400 6829.5012
54.6500 6572.6212
54.6600 6893.1348
54.6700 6754.0410
54.6800 6610.9416
54.6900 6672.6384
54.7000 6941.9726
54.7100 6786.6760
54.7200 6894.0194
54.7300 7108.5978
54.7400 6597.2042
54.7500 7134.7152
54.7600 6836.2190
54.7700 6785.6632
54.7800 6553.5364
54.7900 6555.7508
54.8000 6728.2544
54.8100 6356.6114
54.8200 6680.2230
54.8300 6894.8788
54.8400 6696.6162
54.8500 6756.9726
54.8600 6707.1508
54.8700 6649.4528
54.8800 6907.8166
54.8900 6939.8446
54.9000 6715.2730
54.9100 6675.0976
54.9200 6831.1930
54.9300 6624.3086
54.9400 6837.8752
54.9500 6861.7570
54.9600 6998.1534
54.9700 6689.7192
54.9800 6582.9472
54.9900 6931.7000
55.0000 6607.6848
55.0100 6929.4742
55.0200 6895.6804
55.0300 6651.1634
55.0400 6655.0508
55.0500 6610.7698
55.0600 6720.0516
55.0700 6422.8690
55.0800 6854.6638
55.0900 7173.2250
55.1000 6989.8064
55.1100 6832.4870
55.1200 6918.2356
55.1300 6689.6386
55.1400 6921.9222
55.1500 7024.6176
55.1600 6833.9770
55.1700 6654.0520
55.1800 6710.7670
55.1900 6658.8286
55.2000 6997.9192
55.2100 6893.7484
55.2200 6988.5678
55.2300 6868.7996
55.2400 6946.1100
55.2500 6572.9786
55.2600 6502.9456
55.2700 6401.1946
55.2800 6455.6188
55.2900 6632.1256
55.3000 6709.1080
55.3100 6707.6334
55.3200 6777.4728
55.3300 6978.0794
55.3400 6724.5708
55.3500 7022.2754
55.3600 6711.8746
55.3700 6878.3756
55.3800 6686.8184
55.3900 6664.2542
55.4000 6765.6710
55.4100 6756.0848
55.4200 6542.6224
55.4300 6365.0460
55.4400 6430.5652
55.4500 6455.2124
55.4600 6722.3470
55.4700 6579.2842
55.4800 6952.5016
55.4900 6759.3840
55.5000 6942.6482
55.5100 6829.4540
55.5200 6502.7132
55.5300 6659.6436
55.5400 6821.7428
55.5500 6704.0954
55.5600 6616.4786
55.5700 6589.5130
55.5800 6651.8656
55.5900 6821.4026
55.6000 6869.7404
55.6100 6731.9848
55.6200 6868.5588
55.6300 6759.4886
55.6400 6596.0820
55.6500 6658.8168
55.6600 6753.3186
55.6700 6601.6114
55.6800 6589.4096
55.6900 6790.3142
55.7000 7023.9364
55.7100 6943.9250
55.7200 7062.1924
55.7300 7254.4938
55.7400 6544.1402
55.7500 6730.3584
55.7600 6606.6544
55.7700 6576.1040
55.7800 6884.4694
55.7900 6616.8014
55.8000 6785.1978
55.8100 6627.0378
55.8200 7126.4738
55.8300 6596.9262
55.8400 6826.3382
55.8500 6652.6596
55.8600 6627.2034
55.8700 6550.9884
55.8800 6792.1338
55.8900 6550.6548
55.9000 6446.7142
55.9100 6954.6924
55.9200 6833.3000
55.9300 6674.1744
55.9400 6685.1294
55.9500 6593.0966
55.9600 6772.9964
55.9700 7316.2890
55.9800 6848.4896
55.9900 6935.5014
56.0000 7021.2312
56.0100 6780.3336
56.0200 6811.9352
56.0300 6772.1208
56.0400 6914.0666
56.0500 6663.7834
56.0600 6425.9794
56.0700 7051.8588
56.0800 6963.4148
56.0900 6458.3724
56.1000 6874.8502
56.1100 6989.1064
56.1200 6854.5508
56.1300 6640.7478
56.1400 6782.9244
56.1500 6901.5096
56.1600 6984.5182
56.1700 7270.9578
56.1800 6883.4488
56.1900 6982.7540
56.2000 7182.1526
56.2100 7202.7124
56.2200 6584.5598
56.2300 7168.2568
56.2400 6687.9748
56.2500 7030.6380
56.2600 7064.2016
56.2700 6766.2670
56.2800 6855.3694
56.2900 6916.5250
56.3000 7222.8108
56.3100 7216.5902
56.3200 6846.7228
56.3300 6877.5162
56.3400 6985.8098
56.3500 6871.4908
56.3600 7261.4470
56.3700 7034.5214
56.3800 7065.9676
56.3900 7119.2164
56.4000 7254.1552
56.4100 7177.8304
56.4200 7035.1758
56.4300 6901.0026
56.4400 7123.6954
56.4500 7302.6660
56.4600 7340.9156
56.4700 7658.3472
56.4800 7555.0896
56.4900 7493.0062
56.5000 7134.3416
56.5100 7537.6172
56.5200 7720.5372
56.5300 7253.0022
56.5400 7135.1586
56.5500 7240.9156
56.5600 7553.5206
56.5700 7126.4608
56.5800 7254.4002
56.5900 7245.5608
56.6000 7582.4520
56.6100 7158.4594
56.6200 7386.9392
56.6300 7162.6596
56.6400 7295.7006
56.6500 7254.5744
56.6600 7517.3104
56.6700 7556.8002
56.6800 7318.9722
56.6900 7421.4404
56.7000 7211.7106
56.7100 7140.5998
56.7200 7390.7568
56.7300 7327.2250
56.7400 7376.5120
56.7500 7139.9406
56.7600 7543.5840
56.7700 7984.9276
56.7800 7356.0416
56.7900 7550.9936
56.8000 7123.6190
56.8100 7655.4882
56.8200 7541.1996
56.8300 7663.6848
56.8400 7339.5630
56.8500 7928.2902
56.8600 7367.3836
56.8700 7538.1316
56.8800 7681.6976
56.8900 7785.0032
56.9000 8003.6946
56.9100 8108.1176
56.9200 8177.5896
56.9300 8040.0960
56.9400 8014.7632
56.9500 8262.6578
56.9600 8385.9058
56.9700 8363.6972
56.9800 8144.7282
56.9900 8718.5442
57.0000 8653.1030
57.0100 8775.2726
57.0200 8997.0264
57.0300 8860.0610
57.0400 8818.0672
57.0500 9256.3680
57.0600 9930.4664
57.0700 9661.8790
57.0800 10584.4392
57.0900 10440.4110
57.1000 10794.1960
57.1100 11090.4468
57.1200 11015.5746
57.1300 11542.5668
57.1400 11806.6700
57.1500 12423.0468
57.1600 12373.0070
57.1700 12738.5800
57.1800 12864.7380
57.1900 13325.6584
57.2000 13551.3566
57.2100 14368.7516
57.2200 14535.0960
57.2300 15269.7200
57.2400 15647.2070
57.2500 15700.2556
57.2600 15705.9016
57.2700 16803.8884
57.2800 17392.1044
57.2900 17579.2188
57.3000 18474.0544
57.3100 18675.6054
57.3200 19147.9900
57.3300 19336.3102
57.3400 19398.7776
57.3500 20242.1566
57.3600 19810.6234
57.3700 19947.8352
57.3800 20111.2402
57.3900 20502.7392
57.4000 21242.2852
57.4100 20967.4674
57.4200 20798.8264
57.4300 20963.8932
57.4400 20914.8780
57.4500 20304.4288
57.4600 20042.3812
57.4700 20084.7868
57.4800 20086.9222
57.4900 19525.0358
57.5000 20140.2962
57.5100 19406.5218
57.5200 19364.6386
57.5300 18971.6276
57.5400 18598.4506
57.5500 18738.7094
57.5600 17846.0270
57.5700 17331.5560
57.5800 17365.5452
57.5900 16868.4522
57.6000 16455.6510
57.6100 15972.5554
57.6200 15788.5384
57.6300 14951.7626
57.6400 14515.9570
57.6500 14605.5860
57.6600 14091.0694
57.6700 13384.4442
57.6800 13373.4270
57.6900 12867.7474
57.7000 12704.0128
57.7100 12167.9118
57.7200 11191.2158
57.7300 11171.9856
57.7400 11099.8038
57.7500 10773.0266
57.7600 10547.6944
57.7700 10532.5276
57.7800 10059.1910
57.7900 9744.5150
57.8000 9489.2724
57.8100 9505.9480
57.8200 8882.5130
57.8300 8797.1070
57.8400 8923.8404
57.8500 8869.0210
57.8600 8314.1154
57.8700 8102.6196
57.8800 8341.3624
57.8900 7966.3754
57.9000 8064.4052
57.9100 7450.9480
57.9200 7694.1806
57.9300 7840.4834
57.9400 7197.9850
57.9500 7593.6320
57.9600 7274.5362
57.9700 7257.1150
57.9800 7141.5788
57.9900 7253.3960
58.0000 7454.5622
58.0100 7100.2434
58.0200 7176.0400
58.0300 6906.0400
58.0400 7316.8790
58.0500 7136.2712
58.0600 7558.4944
58.0700 7311.4592
58.0800 7184.4848
58.0900 7035.8650
58.1000 6993.9104
58.1100 6845.7014
58.1200 6797.6034
58.1300 6995.4866
58.1400 6722.1232
58.1500 6914.7762
58.1600 6723.8382
58.1700 6535.7524
58.1800 7047.4236
58.1900 7092.9224
58.2000 6756.2704
58.2100 7240.4752
58.2200 6731.0128
58.2300 6833.8770
58.2400 6524.4466
58.2500 6592.6786
58.2600 6992.9874
58.2700 7093.7890
58.2800 6692.5256
58.2900 6555.1338
58.3000 6610.7386
58.3100 7141.6300
58.3200 6578.7178
58.3300 6488.8762
58.3400 6945.0382
58.3500 6787.7856
58.3600 6693.3732
58.3700 6985.1766
58.3800 6909.4288
58.3900 6682.7652
58.4000 6892.6538
58.4100 6779.9944
58.4200 7089.7608
58.4300 6793.4282
58.4400 7087.3340
58.4500 6799.4088
58.4600 6456.0400
58.4700 6637.8512
58.4800 6767.5338
58.4900 6412.8862
58.5000 6868.3464
58.5100 7004.8388
58.5200 6758.0526
58.5300 6788.4794
58.5400 6583.5314
58.5500 6906.8196
58.5600 6371.7272
58.5700 6882.3446
58.5800 6636.8706
58.5900 7107.1916
58.6000 7107.7076
58.6100 6769.8792
58.6200 6900.2678
58.6300 6992.6098
58.6400 7204.8030
58.6500 6889.7184
58.6600 6909.3702
58.6700 6884.7404
58.6800 6790.1262
58.6900 6640.9856
58.7000 6753.2080
58.7100 6712.7328
58.7200 6859.8746
58.7300 6841.7146
58.7400 6916.8132
58.7500 6630.6438
58.7600 6565.9000
58.7700 6598.5816
58.7800 6637.1692
58.7900 6670.2616
58.8000 6520.1920
58.8100 6742.7190
58.8200 6541.6838
58.8300 6676.7652
58.8400 6907.4210
58.8500 6586.6968
58.8600 6442.6038
58.8700 6767.5410
58.8800 7065.0740
58.8900 6506.1280
58.9000 6835.0000
58.9100 6969.2554
58.9200 6720.8260
58.9300 6549.9304
58.9400 6706.3826
58.9500 6686.8128
58.9600 6749.8486
58.9700 6700.0228
58.9800 6423.5640
58.9900 6642.2644
59.0000 6756.2732
59.0100 6760.9734
59.0200 6396.5270
59.0300 6764.1878
59.0400 6721.6068
59.0500 6504.7868
59.0600 6515.1730
59.0700 6484.7880
59.0800 6624.1386
59.0900 6889.6036
59.1000 6801.9702
59.1100 6698.8684
59.1200 6759.0528
59.1300 6866.6390
59.1400 6722.0480
59.1500 6983.2650
59.1600 6783.1840
59.1700 6475.7332
59.1800 6512.2334
59.1900 6862.4072
59.2000 6571.5454
59.2100 6805.1266
59.2200 6673.0814
59.2300 6978.9852
59.2400 6541.8030
59.2500 6651.3208
59.2600 6631.7964
59.2700 6719.4148
59.2800 6555.9534
59.2900 6601.6012
59.3000 6265.2246
59.3100 6667.8862
59.3200 6738.5438
59.3300 6670.0292
59.3400 6663.6022
59.3500 6832.3486
59.3600 6616.5308
59.3700 6530.1354
59.3800 6964.6370
59.3900 7034.2090
59.4000 6406.1938
59.4100 7175.8684
59.4200 6860.8496
59.4300 6455.6258
59.4400 6720.9966
59.4500 6652.4752
59.4600 6451.2484
59.4700 6707.4536
59.4800 6889.1472
59.4900 6772.8218
59.5000 6872.6432
59.5100 6730.3870
59.5200 7024.1878
59.5300 6981.1182
59.5400 6764.1398
59.5500 6628.3798
59.5600 7126.1328
59.5700 6710.7076
59.5800 6786.2276
59.5900 6968.8134
59.6000 6521.8054
59.6100 6550.1754
59.6200 6950.7250
59.6300 6331.6210
59.6400 6445.2666
59.6500 6654.4376
59.6600 6676.6704
59.6700 6753.9270
59.6800 6310.6636
59.6900 6487.8016
59.7000 6656.3020
59.7100 6919.1846
59.7200 7197.0678
59.7300 6845.0578
59.7400 6601.8074
59.7500 6679.2362
59.7600 6672.7888
59.7700 6672.4646
59.7800 6556.7484
59.7900 7144.6306
59.8000 6646.6898
59.8100 6554.7824
59.8200 6772.3540
59.8300 6594.6850
59.8400 6726.5954
59.8500 6496.4852
59.8600 6450.1570
59.8700 6453.2504
59.8800 6402.0084
59.8900 6836.5136
59.9000 7053.7288
59.9100 6590.4928
59.9200 6505.4162
59.9300 6553.5092
59.9400 6810.6698
59.9500 6755.8638
59.9600 6754.0596
59.9700 7177.1680
59.9800 6732.3218
59.9900 6350.8890
60.0000 7125.0732
60.0100 7093.1298
60.0200 6874.0414
60.0300 6389.7868
60.0400 6615.6454
60.0500 6562.8116
60.0600 7084.8038
60.0700 6874.7786
60.0800 6677.4162
60.0900 6788.2364
60.1000 6870.0284
60.1100 6897.4796
60.1200 6672.1896
60.1300 7103.1576
60.1400 6744.6940
60.1500 6495.9852
60.1600 6834.0486
60.1700 7070.7682
60.1800 6620.7910
60.1900 6692.2168
60.2000 6630.7048
60.2100 6796.7432
60.2200 6867.4984
60.2300 7355.1188
60.2400 6969.7046
60.2500 7016.8010
60.2600 6916.9254
60.2700 6933.1290
60.2800 6870.9488
60.2900 6665.8688
60.3000 6683.3700
60.3100 6881.7888
60.3200 6420.1282
60.3300 6647.4796
60.3400 6702.7962
60.3500 6695.4752
60.3600 6974.4328
60.3700 6742.5634
60.3800 6650.8578
60.3900 6964.5100
60.4000 7113.5238
60.4100 7159.5068
60.4200 6639.7672
60.4300 6982.4202
60.4400 6764.0706
60.4500 6487.8584
60.4600 6604.1088
60.4700 6596.3758
60.4800 6774.5996
60.4900 6837.1526
60.5000 6745.3850
60.5100 6943.1860
60.5200 7107.2624
60.5300 6699.2294
60.5400 6875.8902
60.5500 6860.8708
60.5600 6606.2886
60.5700 6670.4000
60.5800 6616.2280
60.5900 6680.8720
60.6000 6947.5162
60.6100 6884.0992
60.6200 6710.6656
60.6300 6873.2024
60.6400 6589.0568
60.6500 6729.2720
60.6600 7016.1800
60.6700 6858.1274
60.6800 6681.7998
60.6900 6378.8904
60.7000 6600.3666
60.7100 6784.8136
60.7200 6709.9418
60.7300 6686.6012
60.7400 6821.1276
60.7500 6784.0946
60.7600 6528.3068
60.7700 6342.8292
60.7800 6884.1106
60.7900 6804.5780
60.8000 6696.4550
60.8100 6784.9304
60.8200 6468.9966
60.8300 6763.8972
60.8400 6785.7032
60.8500 6360.4772
60.8600 6426.9620
60.8700 6780.2884
60.8800 6335.6746
60.8900 6334.7628
60.9000 6493.3350
60.9100 6217.0804
60.9200 6517.1310
60.9300 6592.2482
60.9400 6673.3964
60.9500 7070.0782
60.9600 6959.8404
60.9700 6535.0680
60.9800 6745.6592
60.9900 6902.1264
61.0000 6730.6604
61.0100 6537.4838
61.0200 6553.0716
61.0300 6506.4010
61.0400 6603.3642
61.0500 6897.3666
61.0600 6424.5288
61.0700 7047.7270
61.0800 6536.1608
61.0900 6640.0142
61.1000 6800.8492
61.1100 6757.2778
61.1200 6932.0646
61.1300 6691.9536
61.1400 6707.4304
61.1500 6654.7262
61.1600 6737.2274
61.1700 6490.0790
61.1800 6744.6598
61.1900 6682.1102
61.2000 6600.4044
61.2100 6647.4528
61.2200 6651.6472
61.2300 6811.6984
61.2400 6634.5846
61.2500 6711.5104
61.2600 6743.2374
61.2700 6811.6138
61.2800 6813.1312
61.2900 6805.9746
61.3000 6879.3408
61.3100 6771.4754
61.3200 6748.6666
61.3300 6814.2562
61.3400 6390.2194
61.3500 6622.5416
61.3600 6425.5848
61.3700 6792.0590
61.3800 6867.5668
61.3900 6463.4574
61.4000 6563.4046
61.4100 6737.5000
61.4200 6571.5072
61.4300 6854.9040
61.4400 6323.1490
61.4500 6789.8910
61.4600 6900.3068
61.4700 6635.6424
61.4800 6577.4618
61.4900 6761.4022
61.5000 6663.6150
61.5100 6593.8236
61.5200 6629.3790
61.5300 6345.8174
61.5400 6381.3114
61.5500 6829.8894
61.5600 6888.0608
61.5700 6687.1724
61.5800 6769.5906
61.5900 6614.9728
61.6000 6627.5212
61.6100 6883.8648
61.6200 7315.8902
61.6300 6499.6472
61.6400 6489.4166
61.6500 6690.6694
61.6600 6545.9358
61.6700 6723.8156
61.6800 6545.3040
61.6900 6519.9064
61.7000 6952.5790
61.7100 6607.9708
61.7200 6653.9746
61.7300 6821.1910
61.7400 6809.8930
61.7500 6633.9298
61.7600 6532.3678
61.7700 6276.8400
61.7800 6406.2276
61.7900 6644.0812
61.8000 6632.4922
61.8100 6509.9370
61.8200 6451.1128
61.8300 6771.7740
61.8400 6959.8576
61.8500 6900.2076
61.8600 6764.4966
61.8700 7006.6130
61.8800 6817.0926
61.8900 6753.5054
61.9000 6776.3586
61.9100 6899.0624
61.9200 6599.3770
61.9300 6922.0036
61.9400 7063.1526
61.9500 6821.8282
61.9600 6685.0794
61.9700 6633.7178
61.9800 6266.3766
61.9900 6608.6154
62.0000 6849.1202
62.0100 6764.2854
62.0200 6886.6594
62.0300 7010.9026
62.0400 6693.4306
62.0500 6814.7424
62.0600 6548.6162
62.0700 6643.3908
62.0800 6676.7908
62.0900 6816.2740
62.1000 7043.7834
62.1100 6629.7680
62.1200 6727.1732
62.1300 6623.0616
62.1400 6702.0720
62.1500 6537.0728
62.1600 6696.7452
62.1700 6799.5812
62.1800 6854.6664
62.1900 7041.6756
62.2000 6815.0306
62.2100 6743.4856
62.2200 6743.3928
62.2300 6844.2212
62.2400 6963.0868
62.2500 6507.1294
62.2600 6825.4354
62.2700 6475.2962
62.2800 6913.0704
62.2900 6836.3892
62.3000 6694.2750
62.3100 6980.4988
62.3200 6872.1778
62.3300 6617.0544
62.3400 6284.0068
62.3500 6655.5022
62.3600 6802.6188
62.3700 6877.4732
62.3800 6697.9086
62.3900 6748.9388
62.4000 6588.2572
62.4100 6743.8126
62.4200 6393.0884
62.4300 6436.4100
62.4400 6664.3144
62.4500 6652.6684
62.4600 7024.3458
62.4700 6453.9542
62.4800 6739.0954
62.4900 6687.4512
62.5000 6749.8300
62.5100 6506.3412
62.5200 6594.9280
62.5300 6745.6416
62.5400 6655.5480
62.5500 6643.4172
62.5600 6647.5806
62.5700 6861.0010
62.5800 6832.5512
62.5900 6590.6604
62.6000 6926.4770
62.6100 6727.4708
62.6200 6655.0590
62.6300 7024.7608
62.6400 6640.8426
62.6500 6592.3434
62.6600 6712.5322
62.6700 6893.2138
62.6800 6730.5680
62.6900 6747.5928
62.7000 6550.1970
62.7100 6577.8316
62.7200 6579.9732
62.7300 6769.4446
62.7400 6655.1400
62.7500 6777.1040
62.7600 7069.6712
62.7700 6642.5774
62.7800 6629.6390
62.7900 6862.5350
62.8000 6749.7144
62.8100 6841.3102
62.8200 6821.7684
62.8300 6631.5076
62.8400 6793.2264
62.8500 6874.3880
62.8600 6607.9414
62.8700 6640.8216
62.8800 6269.0296
62.8900 6087.4544
62.9000 6825.2128
62.9100 7105.4232
62.9200 6786.4722
62.9300 6983.5002
62.9400 6517.7014
62.9500 6986.5006
62.9600 6631.4238
62.9700 6772.7564
62.9800 6375.0838
62.9900 6680.2136
63.0000 6637.7812
63.0100 6696.9148
63.0200 6758.2206
63.0300 6986.6650
63.0400 6256.2362
63.0500 6714.4120
63.0600 6697.1740
63.0700 6697.7466
63.0800 6561.6784
63.0900 6732.4662
63.1000 6592.1794
63.1100 6545.3926
63.1200 6711.7704
63.1300 6546.3724
63.1400 6842.4340
63.1500 7073.2316
63.1600 6534.4258
63.1700 6897.8858
63.1800 6722.7982
63.1900 6851.8840
63.2000 6796.7932
63.2100 6934.9178
63.2200 6697.1188
63.2300 6482.4348
63.2400 6456.5178
63.2500 6452.9334
63.2600 6624.7452
63.2700 6937.0092
63.2800 6587.1016
63.2900 6464.9690
63.3000 6687.0076
63.3100 6497.7580
63.3200 6739.8100
63.3300 6469.3318
63.3400 6555.7442
63.3500 6792.5652
63.3600 6767.8796
63.3700 6635.3406
63.3800 6495.0566
63.3900 6758.7334
63.4000 6492.1586
63.4100 6595.6148
63.4200 6549.6880
63.4300 6621.9034
63.4400 6582.6590
63.4500 6766.7846
63.4600 7020.8040
63.4700 6580.3492
63.4800 6996.9174
63.4900 6676.7786
63.5000 6803.7370
63.5100 6799.7482
63.5200 6941.2956
63.5300 6909.0714
63.5400 6781.0084
63.5500 7039.4010
63.5600 6806.0192
63.5700 6940.6950
63.5800 7042.9330
63.5900 6898.4286
63.6000 7228.3204
63.6100 6879.6736
63.6200 6747.8348
63.6300 6744.2850
63.6400 6727.4256
63.6500 6862.7784
63.6600 6798.3802
63.6700 6576.7342
63.6800 6802.3014
63.6900 7012.6376
63.7000 6619.6166
63.7100 6952.9314
63.7200 7187.9418
63.7300 6630.4468
63.7400 6826.9996
63.7500 6852.3690
63.7600 6726.8624
63.7700 6726.6796
63.7800 6911.5910
63.7900 6550.7784
63.8000 6630.8940
63.8100 6942.2924
63.8200 6668.9352
63.8300 6887.3404
63.8400 7096.4462
63.8500 6676.5502
63.8600 6496.6692
63.8700 6658.8978
63.8800 6648.9392
63.8900 6698.7208
63.9000 6731.8290
63.9100 6688.2096
63.9200 6861.7326
63.9300 6736.5198
63.9400 6827.0442
63.9500 6708.2850
63.9600 6490.1334
63.9700 6476.1740
63.9800 6423.7212
63.9900 6572.8800
64.0000 6684.7648
64.0100 6980.0244
64.0200 6681.0778
64.0300 6549.3924
64.0400 6335.3332
64.0500 6429.4060
64.0600 6629.3868
64.0700 6795.2088
64.0800 6798.3134
64.0900 6694.7664
64.1000 6615.2852
64.1100 6869.1846
64.1200 7065.1864
64.1300 6646.2802
64.1400 6877.8230
64.1500 6404.2154
64.1600 6505.2540
64.1700 6898.7240
64.1800 6807.2152
64.1900 6796.8672
64.2000 6471.0974
64.2100 6353.1686
64.2200 6450.7516
64.2300 6524.3062
64.2400 6689.6192
64.2500 6856.4200
64.2600 6807.2400
64.2700 6671.6956
64.2800 7053.0590
64.2900 7063.8264
64.3000 6551.7168
64.3100 6774.0162
64.3200 6430.3088
64.3300 6703.0038
64.3400 6817.4602
64.3500 6775.6050
64.3600 6727.2246
64.3700 6622.7482
64.3800 6827.5098
64.3900 6741.1386
64.4000 6657.9546
64.4100 6688.3390
64.4200 6726.4314
64.4300 6277.9362
64.4400 6514.8356
64.4500 6480.8130
64.4600 6778.2512
64.4700 6537.3986
64.4800 6407.3930
64.4900 6619.2606
64.5000 6915.2278
64.5100 6436.1466
64.5200 6345.3292
64.5300 6685.4386
64.5400 6575.6312
64.5500 6479.8864
64.5600 6632.6550
64.5700 6696.2814
64.5800 6630.2636
64.5900 6722.9374
64.6000 6326.3090
64.6100 6753.7068
64.6200 6513.3040
64.6300 6784.1914
64.6400 6689.6016
64.6500 6454.7452
64.6600 6896.0336
64.6700 6740.4932
64.6800 6964.5288
64.6900 6747.0222
64.7000 6467.0390
64.7100 6809.1944
64.7200 6773.4220
64.7300 6680.4634
64.7400 7067.0972
64.7500 6927.6246
64.7600 6524.8042
64.7700 6926.3574
64.7800 6608.3094
64.7900 6580.2096
64.8000 6639.1878
64.8100 6670.0610
64.8200 6783.0574
64.8300 6301.2540
64.8400 6673.1978
64.8500 6668.2072
64.8600 6525.5086
64.8700 6802.6786
64.8800 6659.7962
64.8900 6708.1376
64.9000 6530.8354
64.9100 6983.6630
64.9200 6725.1876
64.9300 6732.7978
64.9400 6639.3738
64.9500 6722.9322
64.9600 6940.8040
64.9700 6937.3876
64.9800 6427.1762
64.9900 6751.8432
65.0000 6617.6318
65.0100 6616.1482
65.0200 6698.0550
65.0300 6754.3648
65.0400 6606.1954
65.0500 6668.5560
65.0600 6111.7712
65.0700 6596.3212
65.0800 6836.3436
65.0900 6440.1350
65.1000 6656.2068
65.1100 6625.0744
65.1200 6559.8414
65.1300 6080.8996
65.1400 6490.4928
65.1500 6801.6320
65.1600 6931.7994
65.1700 6505.0314
65.1800 6670.3812
65.1900 6776.7884
65.2000 6694.2220
65.2100 6734.2578
65.2200 6885.7600
65.2300 6644.6162
65.2400 6616.4672
65.2500 6508.6722
65.2600 6574.4604
65.2700 6620.8280
65.2800 6883.5132
65.2900 6499.0690
65.3000 6674.4446
65.3100 6642.6404
65.3200 6365.0968
65.3300 6762.1374
65.3400 6241.0800
65.3500 6860.4402
65.3600 6669.6798
65.3700 6892.1004
65.3800 6787.4406
65.3900 7026.9392
65.4000 6773.8656
65.4100 6725.0634
65.4200 6711.5744
65.4300 6684.9610
65.4400 6818.0778
65.4500 6742.7544
65.4600 6668.8802
65.4700 6896.1418
65.4800 6934.4514
65.4900 6585.2116
65.5000 6691.7672
65.5100 7034.6412
65.5200 6641.0356
65.5300 6430.4900
65.5400 6543.6934
65.5500 6665.4924
65.5600 6448.5904
65.5700 6599.8282
65.5800 6860.6876
65.5900 6831.7920
65.6000 6893.2194
65.6100 6940.9904
65.6200 6865.8064
65.6300 6848.7232
65.6400 6541.6414
65.6500 7053.2528
65.6600 6797.4804
65.6700 6637.7454
65.6800 6769.4514
65.6900 7098.8786
65.7000 6583.6890
65.7100 6596.5148
65.7200 6525.2426
65.7300 6345.7020
65.7400 6642.5822
65.7500 6843.8834
65.7600 6559.0402
65.7700 6663.1686
65.7800 6568.3452
65.7900 6864.0520
65.8000 6841.7244
65.8100 7034.8088
65.8200 6767.0918
65.8300 6680.3174
65.8400 6799.7456
65.8500 6705.8190
65.8600 6846.2492
65.8700 7002.6456
65.8800 6555.6042
65.8900 6718.1202
65.9000 6651.3168
65.9100 6865.4672
65.9200 6937.6180
65.9300 6889.5516
65.9400 6671.0588
65.9500 6474.7718
65.9600 6915.9522
65.9700 6753.7084
65.9800 6811.0096
65.9900 6227.0468
66.0000 6788.9620
66.0100 6425.9696
66.0200 6641.0360
66.0300 6584.1114
66.0400 6704.0988
66.0500 6646.0538
66.0600 6578.9734
66.0700 6678.3488
66.0800 6907.9452
66.0900 6702.7628
66.1000 6613.2422
66.1100 7198.5084
66.1200 6509.2240
66.1300 6829.4874
66.1400 6680.1460
66.1500 6751.6800
66.1600 6302.3462
66.1700 6753.2682
66.1800 6552.0464
66.1900 6508.3036
66.2000 6530.5144
66.2100 6816.5372
66.2200 7063.7296
66.2300 6357.1428
66.2400 6681.2598
66.2500 6597.6998
66.2600 7040.9366
66.2700 6410.7100
66.2800 7068.6150
66.2900 6839.5582
66.3000 6664.3884
66.3100 6668.7666
66.3200 7055.1400
66.3300 6938.7410
66.3400 6931.9962
66.3500 6346.4396
66.3600 6963.7346
66.3700 7077.6612
66.3800 6669.7982
66.3900 7380.4216
66.4000 6794.0218
66.4100 6884.1244
66.4200 6811.8258
66.4300 6722.9642
66.4400 7002.6636
66.4500 6823.5254
66.4600 6957.6246
66.4700 6771.0206
66.4800 6727.5846
66.4900 6608.2658
66.5000 6794.3164
66.5100 6754.8722
66.5200 6483.5718
66.5300 6640.3348
66.5400 6813.7036
66.5500 6529.4686
66.5600 6674.4910
66.5700 6561.5678
66.5800 6968.7426
66.5900 7020.9082
66.6000 6841.1556
66.6100 7031.7382
66.6200 7045.3930
66.6300 6979.6176
66.6400 6788.3268
66.6500 6643.0944
66.6600 7098.6996
66.6700 7030.5974
66.6800 6739.5362
66.6900 6943.9364
66.7000 6997.1240
66.7100 7079.9984
66.7200 7005.9684
66.7300 6686.5564
66.7400 6912.7776
66.7500 6887.4568
66.7600 6821.6146
66.7700 6951.0458
66.7800 7000.9106
66.7900 6963.5360
66.8000 6875.7308
66.8100 6780.7996
66.8200 7071.2182
66.8300 7236.2898
66.8400 7097.6554
66.8500 7229.5662
66.8600 7106.0840
66.8700 7306.6748
66.8800 7532.8914
66.8900 7244.9544
66.9000 6939.6834
66.9100 7259.6598
66.9200 7183.7468
66.9300 7438.9420
66.9400 7758.8046
66.9500 7622.1070
66.9600 7517.2120
66.9700 7682.2706
66.9800 7605.8358
66.9900 7745.5648
67.0000 7444.9674
67.0100 7633.7630
67.0200 7696.6504
67.0300 7743.3480
67.0400 7608.8818
67.0500 7789.0226
67.0600 8106.6976
67.0700 8051.0816
67.0800 8339.7192
67.0900 8594.6492
67.1000 8525.0090
67.1100 8435.6226
67.1200 8174.7828
67.1300 8334.8510
67.1400 9067.2510
67.1500 8958.2292
67.1600 8676.4722
67.1700 8897.5480
67.1800 9325.0382
67.1900 9195.2384
67.2000 8932.3030
67.2100 9616.7220
67.2200 10149.7770
67.2300 9974.9796
67.2400 10190.6722
67.2500 10044.0388
67.2600 10486.9548
67.2700 10797.2404
67.2800 10822.2542
67.2900 11076.0384
67.3000 10883.7566
67.3100 11562.6962
67.3200 11561.0678
67.3300 11839.0056
67.3400 12085.5542
67.3500 12141.5682
67.3600 12446.2670
67.3700 12139.5898
67.3800 12571.0938
67.3900 13058.5100
67.4000 13129.3840
67.4100 12593.2088
67.4200 13209.3694
67.4300 13290.5722
67.4400 13704.3588
67.4500 13743.7402
67.4600 13336.4698
67.4700 13486.7822
67.4800 13914.2106
67.4900 14267.7848
67.5000 13226.3932
67.5100 13360.2400
67.5200 13802.4870
67.5300 13559.3676
67.5400 13311.9018
67.5500 13318.0738
67.5600 13796.9368
67.5700 13209.9732
67.5800 12678.6450
67.5900 13174.6460
67.6000 12968.0022
67.6100 12141.0140
67.6200 12145.0610
67.6300 12397.4252
67.6400 12534.4336
67.6500 12029.2456
67.6600 11919.8666
67.6700 12256.7692
67.6800 11491.8896
67.6900 11397.0744
67.7000 11071.2118
67.7100 10902.5488
67.7200 10739.3212
67.7300 10587.0378
67.7400 10271.9718
67.7500 9831.9686
67.7600 10514.0152
67.7700 9902.6114
67.7800 9700.4834
67.7900 9473.1828
67.8000 9247.5390
67.8100 9198.1576
67.8200 9023.4774
67.8300 8768.2292
67.8400 8631.9898
67.8500 8418.5100
67.8600 8419.2790
67.8700 8685.3320
67.8800 8031.8612
67.8900 8340.7520
67.9000 7814.8388
67.9100 7627.4512
67.9200 7870.9082
67.9300 8222.4666
67.9400 8009.7950
67.9500 7912.4236
67.9600 7656.3216
67.9700 7676.9540
67.9800 7540.5460
67.9900 7328.8794
68.0000 7260.8464
68.0100 7293.9266
68.0200 7666.2866
68.0300 6879.9244
68.0400 7296.6544
68.0500 7038.7068
68.0600 7035.7210
68.0700 7326.5560
68.0800 7372.6376
68.0900 7158.0232
68.1000 7078.6678
68.1100 7278.1234
68.1200 6893.1552
68.1300 6691.2170
68.1400 6912.7994
68.1500 7309.0634
68.1600 6950.9066
68.1700 7121.7236
68.1800 6648.8526
68.1900 6846.2256
68.2000 7059.6070
68.2100 7090.7984
68.2200 7021.1052
68.2300 7160.1944
68.2400 7210.4590
68.2500 7134.2660
68.2600 6902.0712
68.2700 6753.6364
68.2800 6939.1000
68.2900 6766.5694
68.3000 6516.8124
68.3100 6681.1788
68.3200 6937.0020
68.3300 6938.2934
68.3400 7257.8108
68.3500 6985.5558
68.3600 6797.6844
68.3700 6618.2104
68.3800 6820.6332
68.3900 6586.0246
68.4000 6725.7980
68.4100 7054.4710
68.4200 6741.5490
68.4300 6753.6800
68.4400 6463.0278
68.4500 6875.6404
68.4600 6635.1990
68.4700 6765.1436
68.4800 6775.3508
68.4900 6808.6698
68.5000 6584.2562
68.5100 6933.5800
68.5200 6711.2296
68.5300 6970.7390
68.5400 6607.1606
68.5500 6636.0388
68.5600 6949.0088
68.5700 6881.8702
68.5800 6569.2476
68.5900 6794.2078
68.6000 6881.9092
68.6100 6705.2454
68.6200 6502.6502
68.6300 7090.1066
68.6400 6950.1384
68.6500 6676.6682
68.6600 6939.9666
68.6700 6696.6076
68.6800 6985.8366
68.6900 6588.1490
68.7000 6949.3424
68.7100 6802.7320
68.7200 6746.2304
68.7300 6683.4574
68.7400 6611.3770
68.7500 6656.4588
68.7600 6818.5804
68.7700 6753.9592
68.7800 6648.6726
68.7900 6815.6632
68.8000 6650.1974
68.8100 7089.1464
68.8200 6844.6770
68.8300 6567.2806
68.8400 7197.5708
68.8500 7119.2074
68.8600 6844.0568
68.8700 6513.1344
68.8800 6506.1512
68.8900 6712.1916
68.9000 6777.5782
68.9100 6726.3676
68.9200 6654.9264
68.9300 6648.3570
68.9400 6757.9244
68.9500 6996.8806
68.9600 6898.6466
68.9700 6716.1352
68.9800 6788.0734
68.9900 6864.9374
69.0000 6993.6638
69.0100 6848.4488
69.0200 6874.1106
69.0300 7009.1594
69.0400 6755.3092
69.0500 6453.0156
69.0600 6522.0626
69.0700 6741.8908
69.0800 6470.0378
69.0900 6772.7588
69.1000 6611.3260
69.1100 6508.0330
69.1200 6856.9986
69.1300 6648.1458
69.1400 6480.3842
69.1500 6765.4468
69.1600 6436.6516
69.1700 6388.5270
69.1800 6839.1228
69.1900 6490.2544
69.2000 6533.1046
69.2100 6857.4202
69.2200 6633.5664
69.2300 6608.9962
69.2400 6707.3792
69.2500 6763.2112
69.2600 6653.3794
69.2700 6645.6938
69.2800 6629.7452
69.2900 6851.6414
69.3000 6917.2478
69.3100 6527.9956
69.3200 6717.2046
69.3300 7089.2358
69.3400 6847.7718
69.3500 7013.2128
69.3600 6717.4854
69.3700 6338.4794
69.3800 6665.0928
69.3900 6367.7710
69.4000 6554.4772
69.4100 6879.0714
69.4200 6767.6888
69.4300 6462.7674
69.4400 6834.0242
69.4500 6702.3560
69.4600 6850.7674
69.4700 6796.8034
69.4800 6712.1634
69.4900 6542.0142
69.5000 6813.5412
69.5100 7048.4774
69.5200 6787.0492
69.5300 6751.6084
69.5400 6918.5310
69.5500 6527.8068
69.5600 6684.5760
69.5700 6498.5042
69.5800 6556.5450
69.5900 7072.6090
69.6000 6810.8898
69.6100 6569.6302
69.6200 6758.7020
69.6300 6852.5456
69.6400 7129.9210
69.6500 6645.7512
69.6600 6503.9372
69.6700 6715.8378
69.6800 6412.5342
69.6900 6699.7982
69.7000 6542.0044
69.7100 6134.6248
69.7200 6504.7102
69.7300 6786.9246
69.7400 6367.8116
69.7500 6630.4288
69.7600 6633.9340
69.7700 6802.4012
69.7800 6464.5118
69.7900 6951.7106
69.8000 6905.3394
69.8100 6870.1302
69.8200 6557.3856
69.8300 6642.0304
69.8400 6696.4884
69.8500 6458.2028
69.8600 6712.7002
69.8700 6722.1020
69.8800 6402.2578
69.8900 7176.9418
69.9000 7055.4060
69.9100 6569.3250
69.9200 6516.8534
69.9300 6831.9482
69.9400 6776.6382
69.9500 6744.5906
69.9600 6761.2574
69.9700 6415.6312
69.9800 6497.1574
69.9900 6436.9662
70.0000 6894.8788
70.0100 6358.0212
70.0200 6602.7840
70.0300 6322.2962
70.0400 6539.5096
70.0500 6833.1088
70.0600 6501.5336
70.0700 6732.9940
70.0800 6828.1234
70.0900 7058.1656
70.1000 6719.3966
70.1100 6886.8580
70.1200 6966.2776
70.1300 6934.0030
70.1400 6521.4208
70.1500 6690.2616
70.1600 6639.4898
70.1700 6309.5568
70.1800 6429.7668
70.1900 6607.6680
70.2000 6541.3038
70.2100 6955.3540
70.2200 6571.1942
70.2300 6572.3974
70.2400 6963.1510
70.2500 7029.6980
70.2600 6580.2820
70.2700 6530.2242
70.2800 7000.8308
70.2900 6555.6214
70.3000 6588.2846
70.3100 6452.1078
70.3200 6263.4830
70.3300 6577.0890
70.3400 6839.1788
70.3500 6876.2516
70.3600 6752.1240
70.3700 6791.5726
70.3800 6623.5754
70.3900 6690.9884
70.4000 6665.7674
70.4100 6455.4814
70.4200 6845.8920
70.4300 6634.0828
70.4400 6689.5968
70.4500 6625.4964
70.4600 6213.1962
70.4700 6725.7894
70.4800 6826.4164
70.4900 6658.4224
70.5000 6331.6688
70.5100 6890.9514
70.5200 6699.9138
70.5300 6743.1434
70.5400 6847.5878
70.5500 6720.2910
70.5600 6700.2116
70.5700 6484.3612
70.5800 6600.1518
70.5900 6749.3030
70.6000 6706.9682
70.6100 6756.2642
70.6200 6910.7006
70.6300 6762.6692
70.6400 6578.4380
70.6500 6510.7878
70.6600 6705.3666
70.6700 6483.2906
70.6800 6643.4196
70.6900 6162.0630
70.7000 6795.6568
70.7100 6820.3690
70.7200 6651.1836
70.7300 6690.5546
70.7400 6441.3720
70.7500 6532.7190
70.7600 6560.1510
70.7700 6521.1088
70.7800 6661.8734
70.7900 6773.7858
70.8000 7142.1688
70.8100 6666.2544
70.8200 6771.3346
70.8300 6657.7054
70.8400 6318.3932
70.8500 6816.8002
70.8600 6410.9628
70.8700 6803.4062
70.8800 6614.4992
70.8900 6588.8814
70.9000 6616.4848
70.9100 6798.7394
70.9200 7082.9436
70.9300 6873.5214
70.9400 6590.5510
70.9500 6778.7898
70.9600 6568.9844
70.9700 6865.3842
70.9800 6721.6334
70.9900 6805.4558
71.0000 6866.4982
71.0100 6723.4358
71.0200 6436.5608
71.0300 6835.1954
71.0400 6621.6472
71.0500 6815.4122
71.0600 6858.1950
71.0700 6968.2024
71.0800 6415.0302
71.0900 6378.9160
71.1000 6410.5598
71.1100 6401.2936
71.1200 6689.2134
71.1300 6565.9624
71.1400 6115.8948
71.1500 6630.1908
71.1600 6713.2882
71.1700 6658.3528
71.1800 6784.0938
71.1900 6506.4490
71.2000 6949.3246
71.2100 6805.7854
71.2200 6835.7772
71.2300 6598.9624
71.2400 6329.0398
71.2500 6500.2308
71.2600 6895.9384
71.2700 6993.7500
71.2800 6873.1266
71.2900 6919.1838
71.3000 6876.3558
71.3100 7044.2382
71.3200 7013.9926
71.3300 6964.6858
71.3400 6598.8298
71.3500 6700.9574
71.3600 6701.7020
71.3700 6659.4662
71.3800 6715.7516
71.3900 6692.9532
71.4000 6974.9480
71.4100 6670.8322
71.4200 6696.3660
71.4300 6520.0386
71.4400 6564.7002
71.4500 6932.3868
71.4600 6503.2486
71.4700 6755.0032
71.4800 6798.9176
71.4900 6477.8654
71.5000 6842.4032
71.5100 6450.5754
71.5200 6572.7674
71.5300 7091.8652
71.5400 7067.6132
71.5500 6788.7776
71.5600 6883.6466
71.5700 7244.8568
71.5800 6671.8388
71.5900 6857.0516
71.6000 6396.6980
71.6100 6436.6642
71.6200 6970.8284
71.6300 6850.4810
71.6400 6742.0312
71.6500 6691.1182
71.6600 6776.7452
71.6700 6652.3926
71.6800 6798.1922
71.6900 6763.5966
71.7000 6581.4990
71.7100 6639.5260
71.7200 6953.5514
71.7300 6601.0600
71.7400 6741.7998
71.7500 6826.9718
71.7600 6572.1444
71.7700 6728.2596
71.7800 6553.1804
71.7900 6460.0708
71.8000 6611.5222
71.8100 6545.8720
71.8200 6619.9316
71.8300 6738.3288
71.8400 6673.3512
71.8500 6643.8192
71.8600 6667.9996
71.8700 6715.3946
71.8800 6705.7796
71.8900 6783.3200
71.9000 6727.9744
71.9100 6358.0232
71.9200 6763.5550
71.9300 6376.5474
71.9400 6802.5610
71.9500 7150.5876
71.9600 6654.1308
71.9700 6736.1352
71.9800 7126.3216
71.9900 6634.3258
72.0000 6638.6288
72.0100 6850.4728
72.0200 6689.5788
72.0300 7221.0782
72.0400 6956.0254
72.0500 7114.6550
72.0600 6728.5356
72.0700 7036.3330
72.0800 6669.7986
72.0900 6534.6090
72.1000 6928.5310
72.1100 7092.4438
72.1200 7050.2506
72.1300 6938.5986
72.1400 6877.1110
72.1500 6770.7980
72.1600 7074.3482
72.1700 7059.6500
72.1800 6865.4874
72.1900 7087.5920
72.2000 7107.0850
72.2100 7186.2784
72.2200 6795.1172
72.2300 7189.7510
72.2400 7292.5782
72.2500 6862.1680
72.2600 7187.2746
72.2700 7225.5876
72.2800 6947.7286
72.2900 7052.6676
72.3000 7398.9006
72.3100 7252.4690
72.3200 7132.7222
72.3300 7033.2862
72.3400 7275.4272
72.3500 7268.2772
72.3600 7243.1754
72.3700 7219.7876
72.3800 7308.5042
72.3900 7336.3020
72.4000 6630.9130
72.4100 6762.3282
72.4200 6667.1378
72.4300 6619.2032
72.4400 6959.5158
72.4500 6844.8168
72.4600 7004.2538
72.4700 6657.0808
72.4800 6845.6958
72.4900 6762.9146
72.5000 6823.7772
72.5100 6772.7788
72.5200 6925.3834
72.5300 6880.6104
72.5400 6582.1420
72.5500 6714.9820
72.5600 7069.4182
72.5700 6776.1254
72.5800 6799.4540
72.5900 6948.3496
72.6000 7154.8446
72.6100 6907.0922
72.6200 6843.7728
72.6300 6445.5506
72.6400 6878.8990
72.6500 6831.6748
72.6600 6622.2904
72.6700 6858.0168
72.6800 6408.4240
72.6900 6859.4874
72.7000 6772.3662
72.7100 6906.0368
72.7200 6551.3282
72.7300 6741.9710
72.7400 6912.7702
72.7500 6873.5588
72.7600 7160.9066
72.7700 6507.0158
72.7800 6650.5314
72.7900 6383.4620
72.8000 6458.7212
72.8100 6390.2950
72.8200 6594.9118
72.8300 6725.3666
72.8400 6697.8760
72.8500 6379.7668
72.8600 6782.2474
72.8700 6845.1172
72.8800 6662.8720
72.8900 6945.0448
72.9000 6876.7228
72.9100 6837.6522
72.9200 6909.9340
72.9300 6551.5540
72.9400 6483.2116
72.9500 6825.6298
72.9600 6655.4040
72.9700 6380.8650
72.9800 6516.0522
72.9900 6545.2038
73.0000 6582.7172
73.0100 6245.1750
73.0200 6789.6566
73.0300 6892.4626
73.0400 6757.1248
73.0500 6424.3494
73.0600 6503.5120
73.0700 6530.4756
73.0800 6944.9544
73.0900 6643.0436
73.1000 6532.4134
73.1100 6613.5698
73.1200 6216.5836
73.1300 6839.5500
73.1400 7003.0550
73.1500 6918.7256
73.1600 6712.7002
73.1700 6813.6622
73.1800 6791.4238
73.1900 6182.9012
73.2000 6788.6576
73.2100 6633.9062
73.2200 6904.3970
73.2300 6560.1306
73.2400 6635.2202
73.2500 6635.7104
73.2600 6727.5520
73.2700 6839.3392
73.2800 6734.9268
73.2900 6498.8774
73.3000 6527.2832
73.3100 6816.4380
73.3200 6682.3568
73.3300 6858.2478
73.3400 6663.5116
73.3500 6663.4038
73.3600 6871.8448
73.3700 6611.3396
73.3800 6766.0844
73.3900 6620.0224
73.4000 6742.2770
73.4100 6633.9954
73.4200 6851.4128
73.4300 6769.7742
73.4400 6874.8926
73.4500 6891.9238
73.4600 6398.0472
73.4700 6348.2796
73.4800 6586.7416
73.4900 6580.0424
73.5000 6409.8068
73.5100 6531.9710
73.5200 6986.3256
73.5300 6908.1080
73.5400 6844.5964
73.5500 6469.0426
73.5600 6548.7548
73.5700 6974.4336
73.5800 6882.6424
73.5900 6658.2186
73.6000 6833.6954
73.6100 6619.4816
73.6200 6655.5354
73.6300 6774.3364
73.6400 6532.2444
73.6500 6803.4916
73.6600 6895.0138
73.6700 6782.7714
73.6800 6496.4558
73.6900 6506.8848
73.7000 6639.3734
73.7100 6661.3558
73.7200 6510.1600
73.7300 6929.9658
73.7400 6653.4334
73.7500 6938.6190
73.7600 6609.0348
73.7700 6726.3314
73.7800 6903.4188
73.7900 6708.8774
73.8000 6859.9520
73.8100 6806.1878
73.8200 7109.1422
73.8300 6892.6676
73.8400 6899.6892
73.8500 6375.9920
73.8600 6523.3300
73.8700 6598.0566
73.8800 6845.4696
73.8900 7111.8376
73.9000 6756.3506
73.9100 6885.1408
73.9200 6573.9062
73.9300 6465.8732
73.9400 6598.5506
73.9500 6238.4606
73.9600 6774.0276
73.9700 6610.4748
73.9800 6711.1780
73.9900 6825.5034
74.0000 6616.9246
74.0100 6800.6906
74.0200 6735.7002
74.0300 6592.8812
74.0400 6457.0186
74.0500 6796.0522
74.0600 6830.3710
74.0700 6464.3608
74.0800 6748.1010
74.0900 6838.5946
74.1000 6980.9350
74.1100 6665.5436
74.1200 6698.5706
74.1300 6406.0360
74.1400 6438.9746
74.1500 6728.2910
74.1600 6864.7070
74.1700 6716.4526
74.1800 6617.1924
74.1900 6562.5394
74.2000 6768.9576
74.2100 6632.5744
74.2200 6663.4220
74.2300 6729.9748
74.2400 6939.2594
74.2500 6594.9240
74.2600 6378.9494
74.2700 6573.8318
74.2800 6509.1952
74.2900 6736.6960
74.3000 6800.5754
74.3100 7298.7890
74.3200 6713.2922
74.3300 6565.8012
74.3400 6508.6788
74.3500 6695.4684
74.3600 6749.4482
74.3700 6966.6806
74.3800 6943.2446
74.3900 6655.0094
74.4000 6673.2556
74.4100 6374.6866
74.4200 6729.9666
74.4300 6535.8430
74.4400 6512.9240
74.4500 6756.9174
74.4600 6466.8376
74.4700 6720.3772
74.4800 6586.4208
74.4900 6766.5528
74.5000 7044.7128
74.5100 7076.6342
74.5200 7102.1216
74.5300 6885.3548
74.5400 6950.9000
74.5500 6734.3216
74.5600 6355.4798
74.5700 6771.9788
74.5800 6491.6602
74.5900 6701.3774
74.6000 6972.1988
74.6100 6522.1538
74.6200 6638.7552
74.6300 6740.5298
74.6400 6809.9536
74.6500 6977.0370
74.6600 6899.9740
74.6700 6579.7908
74.6800 6719.0856
74.6900 6894.6842
74.7000 7273.1714
74.7100 7071.1100
74.7200 6336.2146
74.7300 6476.0690
74.7400 6475.9164
74.7500 6546.9174
74.7600 6774.3698
74.7700 6587.4134
74.7800 6164.5708
74.7900 6660.7740
74.8000 6714.1696
74.8100 6534.3254
74.8200 6746.6582
74.8300 6610.1722
74.8400 7163.8142
74.8500 6683.1678
74.8600 6806.3762
74.8700 6920.7226
74.8800 6917.2038
74.8900 6863.4896
74.9000 6641.3994
74.9100 6508.6730
74.9200 6693.0050
74.9300 6730.5966
74.9400 6890.7674
74.9500 6856.3826
74.9600 6997.4162
74.9700 6820.8134
74.9800 6846.8904
74.9900 7098.7866
75.0000 6827.8474
75.0100 7043.7134
75.0200 6742.3540
75.0300 6726.2960
75.0400 6581.7960
75.0500 6389.9146
75.0600 6626.2362
75.0700 6852.7776
75.0800 6735.6466
75.0900 6659.4548
75.1000 6952.9802
75.1100 6833.9208
75.1200 6962.0948
75.1300 7236.2036
75.1400 7052.9402
75.1500 6527.8992
75.1600 6482.3738
75.1700 6707.1280
75.1800 6617.9090
75.1900 6928.8908
75.2000 6925.2556
75.2100 6712.8706
75.2200 6724.2740
75.2300 6904.2302
75.2400 6614.2066
75.2500 6974.5704
75.2600 7063.7386
75.2700 6675.9130
75.2800 6639.9142
75.2900 6857.6318
75.3000 6658.3842
75.3100 7067.8100
75.3200 6935.7698
75.3300 7189.7566
75.3400 7323.9444
75.3500 6585.9986
75.3600 6742.3754
75.3700 6914.1334
75.3800 6659.8458
75.3900 6732.3856
75.4000 6967.9264
75.4100 6953.6450
75.4200 7125.2888
75.4300 6674.1528
75.4400 7056.4770
75.4500 7020.8082
75.4600 6629.8776
75.4700 7027.3348
75.4800 6887.2348
75.4900 6622.9972
75.5000 6966.2084
75.5100 6893.8574
75.5200 6943.8142
75.5300 6792.3182
75.5400 6621.3972
75.5500 6573.8106
75.5600 6688.9562
75.5700 7054.1764
75.5800 6734.5822
75.5900 6666.6964
75.6000 6717.7914
75.6100 6585.9248
75.6200 6622.0792
75.6300 6260.3642
75.6400 6602.6510
75.6500 6529.7018
75.6600 6652.2098
75.6700 6527.3434
75.6800 6840.4444
75.6900 7036.5698
75.7000 6961.0514
75.7100 6858.5580
75.7200 7348.6426
75.7300 6966.3648
75.7400 6669.0152
75.7500 7065.2556
75.7600 7125.7902
75.7700 7011.4942
75.7800 6805.6234
75.7900 6812.8654
75.8000 6418.2356
75.8100 6894.8038
75.8200 6974.3344
75.8300 6610.6580
75.8400 6428.1478
75.8500 6924.8852
75.8600 7450.1448
75.8700 7280.4402
75.8800 6977.2168
75.8900 6869.7664
75.9000 6636.1092
75.9100 6756.5222
75.9200 6968.9014
75.9300 6798.7020
75.9400 6577.2216
75.9500 7092.0426
75.9600 6940.4842
75.9700 6884.5320
75.9800 7135.7576
75.9900 7052.5862
76.0000 7102.9086
76.0100 6757.7328
76.0200 6854.2286
76.0300 7054.1414
76.0400 6897.6220
76.0500 7024.1650
76.0600 7130.1180
76.0700 7051.0994
76.0800 6844.6176
76.0900 6810.2148
76.1000 6662.7340
76.1100 6797.5106
76.1200 7279.4604
76.1300 7312.6228
76.1400 6858.7198
76.1500 7157.3462
76.1600 7277.6498
76.1700 6906.3248
76.1800 7014.6972
76.1900 7269.4312
76.2000 6872.7458
76.2100 7163.2878
76.2200 7028.1348
76.2300 7256.1946
76.2400 7422.9232
76.2500 7212.8134
76.2600 7495.8130
76.2700 7486.9638
76.2800 7406.4900
76.2900 7558.4856
76.3000 7763.1698
76.3100 7653.7964
76.3200 7410.7870
76.3300 7286.5992
76.3400 7410.9472
76.3500 7640.5330
76.3600 7477.2762
76.3700 7417.6994
76.3800 7256.4526
76.3900 7175.4386
76.4000 7368.9942
76.4100 7792.6114
76.4200 7773.0542
76.4300 7957.2802
76.4400 7792.2444
76.4500 7950.9636
76.4600 7661.3754
76.4700 7877.7776
76.4800 8038.8168
76.4900 7704.4466
76.5000 8303.4594
76.5100 8044.1586
76.5200 8123.7890
76.5300 8526.1678
76.5400 8561.0896
76.5500 8677.0712
76.5600 8663.6490
76.5700 8975.7324
76.5800 8851.7008
76.5900 8494.6460
76.6000 8693.3708
76.6100 9152.1948
76.6200 9254.5996
76.6300 9257.5642
76.6400 9174.9528
76.6500 9574.8706
76.6600 9853.8932
76.6700 9576.0750
76.6800 9805.6698
76.6900 10126.1858
76.7000 9589.1862
76.7100 10705.9814
76.7200 10478.5954
76.7300 10279.8536
76.7400 10775.9424
76.7500 10720.5712
76.7600 10732.8898
76.7700 10673.5002
76.7800 10575.3540
76.7900 10999.0324
76.8000 11091.0458
76.8100 11357.3772
76.8200 11021.7920
76.8300 10973.2658
76.8400 11315.4900
76.8500 11386.2216
76.8600 11640.2986
76.8700 11759.8494
76.8800 11103.9128
76.8900 11427.7270
76.9000 11054.2618
76.9100 11430.2042
76.9200 12021.8726
76.9300 11216.9288
76.9400 11225.0806
76.9500 11755.5118
76.9600 11719.0852
76.9700 11146.9760
76.9800 11179.0764
76.9900 11149.5800
77.0000 11352.8442
77.0100 10511.8238
77.0200 10712.7800
77.0300 10889.5426
77.0400 10741.1906
77.0500 10858.6516
77.0600 10493.1324
77.0700 10275.0764
77.0800 10436.6244
77.0900 10203.9356
77.1000 10362.3528
77.1100 10215.9212
77.1200 9772.3168
77.1300 9627.1980
77.1400 9565.3320
77.1500 9184.6940
77.1600 9742.9882
77.1700 9449.3490
77.1800 9151.5446
77.1900 8967.7880
77.2000 9286.6406
77.2100 8597.8540
77.2200 8096.7424
77.2300 8386.0270
77.2400 8344.1048
77.2500 8137.0712
77.2600 8447.2290
77.2700 8012.0850
77.2800 8253.6280
77.2900 8150.3474
77.3000 8065.8984
77.3100 7871.9450
77.3200 7498.5686
77.3300 8002.8702
77.3400 7723.8956
77.3500 7571.0116
77.3600 7677.3918
77.3700 7358.1526
77.3800 7245.5948
77.3900 7602.2102
77.4000 7416.5022
77.4100 7496.9620
77.4200 7112.8028
77.4300 7322.8532
77.4400 7408.7866
77.4500 7274.6134
77.4600 7320.8106
77.4700 7270.3036
77.4800 7245.5200
77.4900 7366.8668
77.5000 7105.1920
77.5100 6725.0838
77.5200 6890.9830
77.5300 6983.7590
77.5400 6899.4726
77.5500 6829.4206
77.5600 6952.5846
77.5700 7165.6030
77.5800 6709.7478
77.5900 7182.4820
77.6000 6883.3300
77.6100 7218.9038
77.6200 7162.8946
77.6300 6450.1314
77.6400 6479.7746
77.6500 6781.5474
77.6600 6959.6330
77.6700 6679.4844
77.6800 6874.5572
77.6900 7085.1490
77.7000 6629.0992
77.7100 6657.0060
77.7200 6948.4644
77.7300 7045.3108
77.7400 6865.3736
77.7500 6682.4788
77.7600 6781.6244
77.7700 6692.4060
77.7800 6743.9444
77.7900 6927.6098
77.8000 7040.9888
77.8100 6983.5538
77.8200 6961.6236
77.8300 6666.9348
77.8400 7029.2122
77.8500 6882.3210
77.8600 6724.0128
77.8700 6897.4862
77.8800 6621.9970
77.8900 6626.9694
77.9000 6935.9122
77.9100 6831.4314
77.9200 6711.1328
77.9300 6895.5362
77.9400 7027.0540
77.9500 6797.2612
77.9600 6893.8786
77.9700 6975.3150
77.9800 6706.4514
77.9900 6981.8710
78.0000 7055.7910
78.0100 6882.1696
78.0200 7143.5172
78.0300 6715.7470
78.0400 6944.2390
78.0500 6753.7448
78.0600 6814.6024
78.0700 6969.9772
78.0800 6851.0050
78.0900 6584.5914
78.1000 6851.1028
78.1100 6844.8178
78.1200 6822.4154
78.1300 6547.6668
78.1400 6715.1860
78.1500 6390.0846
78.1600 6887.2966
78.1700 6890.9652
78.1800 6760.9904
78.1900 7079.6412
78.2000 6893.6564
78.2100 7050.9432
78.2200 7332.6758
78.2300 6920.5038
78.2400 6832.1386
78.2500 7029.5882
78.2600 6772.1912
78.2700 6720.8436
78.2800 6650.7482
78.2900 6973.0004
78.3000 7052.4122
78.3100 6966.1662
78.3200 6815.3276
78.3300 6459.6374
78.3400 6969.5662
78.3500 6686.8676
78.3600 6631.7086
78.3700 7026.8832
78.3800 6986.4908
78.3900 6731.2178
78.4000 6425.8330
78.4100 6836.3370
78.4200 6983.1616
78.4300 6880.5542
78.4400 6809.2770
78.4500 6470.8928
78.4600 6665.3592
78.4700 6864.8544
78.4800 6911.1858
78.4900 6620.5604
78.5000 6863.0502
78.5100 6678.0750
78.5200 6738.3060
78.5300 6796.3216
78.5400 6977.4414
78.5500 6839.9016
78.5600 6740.4390
78.5700 6780.2180
78.5800 6823.4896
78.5900 6748.7980
78.6000 6515.3592
78.6100 6913.4912
78.6200 7311.3184
78.6300 6784.5190
78.6400 6719.5244
78.6500 6879.2098
78.6600 7016.5258
78.6700 6450.0656
78.6800 6842.8124
78.6900 6541.2806
78.7000 6662.2360
78.7100 6699.2168
78.7200 6755.3834
78.7300 6811.2326
78.7400 6654.0140
78.7500 6718.5136
78.7600 6884.9366
78.7700 6745.4664
78.7800 6852.1516
78.7900 6519.4616
78.8000 6843.6190
78.8100 6753.7650
78.8200 6806.7740
78.8300 6727.7552
78.8400 6337.5748
78.8500 6634.1814
78.8600 6684.9964
78.8700 7282.4488
78.8800 6706.9458
78.8900 6800.3524
78.9000 6910.6820
78.9100 6775.7958
78.9200 6752.6242
78.9300 6778.1416
78.9400 6729.1756
78.9500 6811.4140
78.9600 6846.6048
78.9700 6466.4234
78.9800 6541.8742
78.9900 6684.2618
79.0000 6618.5108
79.0100 6676.1060
79.0200 6906.1052
79.0300 6854.6924
79.0400 6875.2644
79.0500 7071.6472
79.0600 6791.5756
79.0700 6608.4566
79.0800 6748.6634
79.0900 6770.0936
79.1000 6926.8912
79.1100 6627.2620
79.1200 6501.7070
79.1300 6683.7696
79.1400 6554.6330
79.1500 6764.6382
79.1600 6659.4466
79.1700 6790.3820
79.1800 6802.5386
79.1900 6889.7714
79.2000 6632.0744
79.2100 6728.6100
79.2200 6352.8638
79.2300 6574.4226
79.2400 6795.0630
79.2500 6869.0414
79.2600 6727.3540
79.2700 7018.8534
79.2800 6689.5622
79.2900 6588.8668
79.3000 6575.8768
79.3100 6766.9124
79.3200 6343.0840
79.3300 6643.6202
79.3400 6501.8294
79.3500 6568.0822
79.3600 7109.4278
79.3700 6919.7852
79.3800 6677.0382
79.3900 6925.7210
79.4000 6707.0248
79.4100 6768.0730
79.4200 6645.7576
79.4300 6924.9170
79.4400 6682.0292
79.4500 6752.4894
79.4600 6697.6022
79.4700 6868.2390
79.4800 6882.7758
79.4900 6717.9196
79.5000 6970.8390
79.5100 6812.9924
79.5200 6776.3098
79.5300 6812.1130
79.5400 6709.2558
79.5500 6901.4396
79.5600 6950.4752
79.5700 6774.2740
79.5800 6529.4434
79.5900 7054.4514
79.6000 6644.9280
79.6100 7135.7714
79.6200 6798.7402
79.6300 6865.9660
79.6400 7100.2888
79.6500 7019.0844
79.6600 6856.5332
79.6700 6576.1006
79.6800 6701.6928
79.6900 6818.5054
79.7000 6707.9118
79.7100 6544.5862
79.7200 6553.4404
79.7300 6556.7408
79.7400 6877.0670
79.7500 6479.1504
79.7600 6985.4330
79.7700 6689.5642
79.7800 6774.9340
79.7900 6680.7014
79.8000 6662.3120
79.8100 6998.4180
79.8200 6835.9180
79.8300 6724.0552
79.8400 6763.9786
79.8500 6805.9864
79.8600 6707.1044
79.8700 6670.1224
79.8800 6927.9394
79.8900 7012.5302
79.9000 6611.9584
79.9100 6826.9580
79.9200 6797.5008
79.9300 6826.0530
79.9400 6764.9870
79.9500 6683.7582
79.9600 6876.9548
79.9700 6752.4650
79.9800 6736.0568
79.9900 7291.5324
80.0000 6985.7968
80.0100 6634.2058
80.0200 6478.7052
80.0300 7002.0694
80.0400 6815.0212
80.0500 6671.0702
80.0600 6472.7380
80.0700 6875.8642
80.0800 6725.2348
80.0900 6714.4498
80.1000 7048.8746
80.1100 7034.2212
80.1200 6919.0772
80.1300 7152.7156
80.1400 7078.0924
80.1500 6695.4896
80.1600 6802.0446
80.1700 6518.6980
80.1800 6649.5036
80.1900 6704.0112
80.2000 6718.6096
80.2100 6688.2398
80.2200 6915.7536
80.2300 6818.5294
80.2400 6502.3990
80.2500 6779.3970
80.2600 6818.9790
80.2700 6990.6974
80.2800 6787.9130
80.2900 6732.2758
80.3000 6910.2270
80.3100 6629.4124
80.3200 6577.4112
80.3300 6767.5330
80.3400 6921.7562
80.3500 6845.4606
80.3600 7046.7920
80.3700 6770.8418
80.3800 6675.8928
80.3900 6702.9524
80.4000 6712.2786
80.4100 6842.5610
80.4200 6792.6534
80.4300 6821.4852
80.4400 6698.6938
80.4500 6760.8166
80.4600 6824.9740
80.4700 6828.5424
80.4800 6590.0484
80.4900 6541.7396
80.5000 6807.1302
80.5100 6927.8752
80.5200 7015.5876
80.5300 7031.8554
80.5400 7206.4518
80.5500 6823.6032
80.5600 7016.9060
80.5700 6906.1752
80.5800 6917.7946
80.5900 6840.4574
80.6000 6726.9348
80.6100 6837.8190
80.6200 6611.3388
80.6300 6969.8632
80.6400 6619.4868
80.6500 6581.1360
80.6600 6471.4782
80.6700 6606.5470
80.6800 6843.7158
80.6900 7102.0370
80.7000 6690.7854
80.7100 7022.3292
80.7200 6531.4188
80.7300 6994.9480
80.7400 6885.6730
80.7500 6885.7910
80.7600 7046.3526
80.7700 6985.9456
80.7800 6981.6756
80.7900 7214.8136
80.8000 7160.8024
80.8100 6677.7616
80.8200 6858.4872
80.8300 6675.7792
80.8400 7044.1464
80.8500 6812.5310
80.8600 6694.7558
80.8700 6716.2248
80.8800 6696.7972
80.8900 6543.8960
80.9000 7051.4884
80.9100 7053.6044
80.9200 6951.3028
80.9300 6872.7898
80.9400 7017.4104
80.9500 7634.2880
80.9600 6943.0338
80.9700 6958.3292
80.9800 6901.6724
80.9900 7091.6000
81.0000 7144.7770
81.0100 7284.1464
81.0200 7284.1138
81.0300 7165.3842
81.0400 7145.1928
81.0500 7774.7892
81.0600 7133.1958
81.0700 7129.6802
81.0800 7225.4924
81.0900 7310.9180
81.1000 7054.0844
81.1100 7158.1096
81.1200 7511.9572
81.1300 7472.7572
81.1400 7186.8718
81.1500 7170.7024
81.1600 7620.3768
81.1700 7627.9346
81.1800 7613.1470
81.1900 7107.0484
81.2000 7533.1788
81.2100 7690.7332
81.2200 7374.3448
81.2300 7544.5476
81.2400 7527.8500
81.2500 7775.1246
81.2600 7703.3228
81.2700 7502.5520
81.2800 8087.1192
81.2900 7754.8380
81.3000 8261.4234
81.3100 7987.3764
81.3200 8191.5266
81.3300 7472.5814
81.3400 7959.4304
81.3500 8014.0162
81.3600 7937.0508
81.3700 7995.5290
81.3800 7822.8238
81.3900 8175.1758
81.4000 8223.8102
81.4100 8082.4472
81.4200 8256.4558
81.4300 8170.1700
81.4400 7834.0828
81.4500 8225.4630
81.4600 8081.1336
81.4700 7959.1740
81.4800 7665.4712
81.4900 7821.2712
81.5000 7963.0574
81.5100 7991.6202
81.5200 7855.2026
81.5300 7657.0206
81.5400 7820.0318
81.5500 7635.0406
81.5600 7943.5450
81.5700 7877.8426
81.5800 7926.8978
81.5900 7848.2096
81.6000 7725.4622
81.6100 7721.1068
81.6200 8015.5590
81.6300 7613.6604
81.6400 7997.6880
81.6500 7653.9184
81.6600 7476.9458
81.6700 7285.9578
81.6800 7647.8540
81.6900 7757.8500
81.7000 7568.3032
81.7100 8011.6064
81.7200 7824.3344
81.7300 7702.9720
81.7400 7334.6176
81.7500 7309.6256
81.7600 7216.2980
81.7700 7476.6072
81.7800 8064.8640
81.7900 7488.8550
81.8000 7296.0124
81.8100 7230.2824
81.8200 7106.3534
81.8300 7042.6506
81.8400 7145.8162
81.8500 6633.0034
81.8600 6777.2408
81.8700 7162.6538
81.8800 7201.3412
81.8900 7300.3808
81.9000 6681.1588
81.9100 7023.4366
81.9200 7102.6758
81.9300 7004.5720
81.9400 7205.0960
81.9500 7152.6546
81.9600 6827.5138
81.9700 6857.9078
81.9800 6661.2658
81.9900 6727.1326
82.0000 6882.2876
82.0100 7065.6812
82.0200 6970.9432
82.0300 6729.2452
82.0400 6834.6264
82.0500 7163.6938
82.0600 6907.8484
82.0700 7098.0436
82.0800 7056.6016
82.0900 6892.5984
82.1000 6948.0746
82.1100 7132.1664
82.1200 6875.4102
82.1300 6892.0598
82.1400 7087.2908
82.1500 6926.6366
82.1600 6890.1506
82.1700 6697.7104
82.1800 7013.6002
82.1900 6787.9794
82.2000 6998.7118
82.2100 7090.2474
82.2200 6833.1902
82.2300 6789.8034
82.2400 6826.0698
82.2500 6935.2058
82.2600 6873.2968
82.2700 6943.0420
82.2800 6748.7448
82.2900 6907.0850
82.3000 6814.5300
82.3100 6965.0676
82.3200 7061.1882
82.3300 6562.5024
82.3400 7282.4186
82.3500 6855.5608
82.3600 6974.1902
82.3700 7194.5622
82.3800 6817.9976
82.3900 7034.3368
82.4000 6584.9618
82.4100 6791.0588
82.4200 7128.5702
82.4300 6900.6836
82.4400 6736.5148
82.4500 7047.8922
82.4600 7046.2460
82.4700 6958.2324
82.4800 7147.5748
82.4900 6952.8410
82.5000 6708.5384
82.5100 6768.3170
82.5200 7128.4058
82.5300 6826.5158
82.5400 6740.0870
82.5500 6972.0906
82.5600 6864.9088
82.5700 6683.2036
82.5800 6800.2352
82.5900 7312.2062
82.6000 7037.6482
82.6100 7093.6352
82.6200 7179.6664
82.6300 7167.2820
82.6400 6866.6048
82.6500 6980.8790
82.6600 7318.7924
82.6700 6976.6918
82.6800 6728.1998
82.6900 6745.8622
82.7000 6858.3692
82.7100 6775.3194
82.7200 6698.2390
82.7300 6901.1882
82.7400 6934.7054
82.7500 6746.4124
82.7600 6603.1682
82.7700 7048.0094
82.7800 6940.0578
82.7900 6813.4256
82.8000 6763.7004
82.8100 7035.6982
82.8200 6597.8340
82.8300 6680.3012
82.8400 6786.0100
82.8500 7066.0946
82.8600 6685.5094
82.8700 6482.5892
82.8800 6703.2836
82.8900 7245.4330
82.9000 6633.9904
82.9100 6787.9524
82.9200 6739.3718
82.9300 6634.7616
82.9400 7177.7426
82.9500 6989.4002
82.9600 6733.4746
82.9700 6945.9350
82.9800 6839.7982
82.9900 7133.3740
83.0000 6735.7528
83.0100 6824.9760
83.0200 6759.8872
83.0300 6739.6504
83.0400 6597.9610
83.0500 6683.8684
83.0600 7075.8448
83.0700 6901.1670
83.0800 6446.3354
83.0900 6840.5794
83.1000 6588.4212
83.1100 6818.0460
83.1200 7064.3262
83.1300 6710.8688
83.1400 6736.5624
83.1500 7107.7312
83.1600 6880.1546
83.1700 6707.7286
83.1800 6676.4454
83.1900 6870.7218
83.2000 6649.4466
83.2100 6665.6970
83.2200 6713.5514
83.2300 6437.0442
83.2400 6685.9030
83.2500 7103.3480
83.2600 6861.2736
83.2700 7301.6284
83.2800 6885.7642
83.2900 7153.1552
83.3000 7136.9026
83.3100 6743.1572
83.3200 6920.3808
83.3300 6859.7364
83.3400 6857.0110
83.3500 7080.6144
83.3600 6930.0456
83.3700 7030.4646
83.3800 6664.8254
83.3900 6952.9778
83.4000 6931.7986
83.4100 6960.2880
83.4200 6581.1036
83.4300 7385.7576
83.4400 7050.8708
83.4500 6994.5206
83.4600 6908.3846
83.4700 6954.3310
83.4800 6956.2068
83.4900 6966.9718
83.5000 7091.2362
83.5100 7049.6614
83.5200 6792.5374
83.5300 6690.2348
83.5400 6839.0014
83.5500 6757.8080
83.5600 6874.2098
83.5700 6807.7910
83.5800 6697.2140
83.5900 6836.6008
83.6000 6961.9532
83.6100 6909.3644
83.6200 6860.1018
83.6300 6945.7886
83.6400 6834.4922
83.6500 6726.9506
83.6600 7023.3602
83.6700 6999.6126
83.6800 6967.3974
83.6900 6845.3150
83.7000 6959.4100
83.7100 7233.3666
83.7200 7028.5206
83.7300 6901.5478
83.7400 6938.2014
83.7500 6949.8332
83.7600 6816.3526
83.7700 6887.3650
83.7800 7003.5246
83.7900 6467.2074
83.8000 6886.8116
83.8100 6932.2266
83.8200 6683.7788
83.8300 6886.9402
83.8400 6879.2994
83.8500 6838.5392
83.8600 6922.2640
83.8700 7068.1014
83.8800 6816.3920
83.8900 6549.5186
83.9000 6753.7370
83.9100 6802.3292
83.9200 6782.2802
83.9300 6949.6216
83.9400 6645.4992
83.9500 6611.0254
83.9600 6618.8400
83.9700 6853.9786
83.9800 6874.2130
83.9900 6865.1376
84.0000 6961.0092
84.0100 6759.3958
84.0200 7029.9984
84.0300 6851.7278
84.0400 6903.3252
84.0500 6978.1966
84.0600 7017.8824
84.0700 6809.6928
84.0800 6813.7642
84.0900 6942.7392
84.1000 6788.0460
84.1100 6826.8344
84.1200 6688.3928
84.1300 6968.9192
84.1400 6460.7954
84.1500 6669.9068
84.1600 6733.5404
84.1700 6860.4664
84.1800 7092.8256
84.1900 7039.9512
84.2000 6983.4620
84.2100 6944.9194
84.2200 6874.4320
84.2300 6916.6480
84.2400 6801.0420
84.2500 7040.3980
84.2600 6843.3448
84.2700 6682.4694
84.2800 6940.3052
84.2900 6868.9990
84.3000 6900.3516
84.3100 6786.4652
84.3200 7030.8952
84.3300 7048.2544
84.3400 6813.2466
84.3500 6588.0712
84.3600 6682.9870
84.3700 6936.0360
84.3800 7059.9422
84.3900 6710.7052
84.4000 7250.6934
84.4100 7125.6648
84.4200 7167.7368
84.4300 7270.0180
84.4400 6895.1506
84.4500 6852.4430
84.4600 6743.2812
84.4700 6790.1994
84.4800 6889.9332
84.4900 6797.4968
84.5000 6634.5568
84.5100 7477.9378
84.5200 6644.8100
84.5300 6735.5376
84.5400 6833.1062
84.5500 6590.0448
84.5600 6890.6502
84.5700 7045.6730
84.5800 7034.5882
84.5900 6833.0818
84.6000 6866.6114
84.6100 7293.2812
84.6200 6781.1748
84.6300 6542.2428
84.6400 6754.0088
84.6500 6851.2444
84.6600 7176.2524
84.6700 6729.8754
84.6800 6626.4112
84.6900 6768.8990
84.7000 6886.8514
84.7100 6764.8270
84.7200 6996.5064
84.7300 6632.2612
84.7400 6553.7570
84.7500 6732.7422
84.7600 6714.8990
84.7700 6793.0318
84.7800 7017.3014
84.7900 6875.9986
84.8000 7263.4668
84.8100 6749.5382
84.8200 6965.0822
84.8300 6905.8878
84.8400 6908.7654
84.8500 6845.5428
84.8600 6908.6800
84.8700 6851.2232
84.8800 6901.1736
84.8900 6718.6626
84.9000 6966.2346
84.9100 6791.0994
84.9200 6851.5512
84.9300 6174.4380
84.9400 6692.0008
84.9500 6735.4768
84.9600 6888.5710
84.9700 6780.7854
84.9800 6918.4612
84.9900 7034.5182
85.0000 6883.8208
85.0100 7001.5170
85.0200 6847.6986
85.0300 7100.2400
85.0400 7170.8562
85.0500 6773.7532
85.0600 6706.9934
85.0700 6981.8270
85.0800 6793.4994
85.0900 6707.3068
85.1000 7022.0736
85.1100 7311.5624
85.1200 7192.2306
85.1300 6824.2936
85.1400 7176.3484
85.1500 6940.3720
85.1600 7200.1114
85.1700 7082.8068
85.1800 6813.6910
85.1900 7077.8946
85.2000 7011.3728
85.2100 6827.4488
85.2200 6814.8478
85.2300 6871.5398
85.2400 6860.5380
85.2500 7032.9874
85.2600 7199.5720
85.2700 7260.6054
85.2800 7409.1390
85.2900 7013.0494
85.3000 6806.1104
85.3100 6958.8420
85.3200 7035.3012
85.3300 7581.5438
85.3400 6999.9072
85.3500 7042.9638
85.3600 7430.9000
85.3700 7443.9600
85.3800 7105.2222
85.3900 7428.3586
85.4000 7016.2320
85.4100 7375.2506
85.4200 7179.7542
85.4300 6929.3580
85.4400 7121.9288
85.4500 7128.0494
85.4600 7511.8400
85.4700 7263.0038
85.4800 7256.2882
85.4900 7164.1308
85.5000 7388.7484
85.5100 7384.1674
85.5200 7346.1996
85.5300 7268.8956
85.5400 7371.3184
85.5500 7074.9308
85.5600 7021.7408
85.5700 7345.5566
85.5800 7119.5500
85.5900 7348.5930
85.6000 7773.4156
85.6100 7585.9668
85.6200 7639.4296
85.6300 7650.5404
85.6400 7575.0578
85.6500 8170.1058
85.6600 7835.5306
85.6700 8120.0268
85.6800 7977.5008
85.6900 8031.6308
85.7000 7888.2194
85.7100 8154.4376
85.7200 8136.0320
85.7300 8076.4022
85.7400 8097.3404
85.7500 8520.3028
85.7600 8568.4790
85.7700 8326.2696
85.7800 8828.4180
85.7900 8445.6356
85.8000 8659.0308
85.8100 8311.9230
85.8200 8904.2188
85.8300 8935.9164
85.8400 8796.7872
85.8500 8708.8566
85.8600 8523.4106
85.8700 8482.5822
85.8800 8730.2002
85.8900 8825.6666
85.9000 9126.0896
85.9100 8739.9544
85.9200 8450.3344
85.9300 8979.4572
85.9400 9127.9574
85.9500 8769.5092
85.9600 8828.7338
85.9700 8683.5832
85.9800 8572.4162
85.9900 8983.2902
86.0000 8606.9384
86.0100 9020.2392
86.0200 8697.7580
86.0300 8766.3094
86.0400 9096.4982
86.0500 8862.4944
86.0600 8232.2640
86.0700 8425.9326
86.0800 8890.1912
86.0900 8489.3938
86.1000 8547.1264
86.1100 8199.8674
86.1200 8443.1526
86.1300 8012.7986
86.1400 8291.6830
86.1500 8572.2754
86.1600 8408.7736
86.1700 8077.8402
86.1800 8049.9048
86.1900 8328.5074
86.2000 8139.8796
86.2100 8035.2426
86.2200 8068.8152
86.2300 8312.3876
86.2400 7878.4960
86.2500 7523.5612
86.2600 7994.9390
86.2700 7331.2256
86.2800 7608.9648
86.2900 7961.8750
86.3000 7968.8208
86.3100 7803.9526
86.3200 7988.0632
86.3300 7620.4736
86.3400 7387.1166
86.3500 7493.7932
86.3600 7416.3534
86.3700 7255.2906
86.3800 7119.6094
86.3900 7370.8480
86.4000 7691.2980
86.4100 7244.8738
86.4200 7449.8446
86.4300 7242.4780
86.4400 7215.0390
86.4500 7545.5932
86.4600 7195.5144
86.4700 7382.8158
86.4800 7041.1816
86.4900 7310.2506
86.5000 6839.0332
86.5100 6898.9510
86.5200 6950.1774
86.5300 7218.6132
86.5400 6671.8050
86.5500 6973.2870
86.5600 7454.5134
86.5700 6923.3300
86.5800 6937.2420
86.5900 7015.1628
86.6000 7339.3196
86.6100 6965.7486
86.6200 7283.1624
86.6300 6915.0496
86.6400 7240.1734
86.6500 6527.9444
86.6600 6467.5406
86.6700 6820.5188
86.6800 7204.5654
86.6900 6796.1788
86.7000 6689.6980
86.7100 7005.1204
86.7200 7305.9342
86.7300 7485.3378
86.7400 7217.9842
86.7500 6743.0432
86.7600 6341.7920
86.7700 7145.1310
86.7800 6526.5962
86.7900 7051.3712
86.8000 6967.0362
86.8100 6894.8324
86.8200 6986.0140
86.8300 6924.2976
86.8400 7421.4086
86.8500 7074.9756
86.8600 6534.4458
86.8700 6462.0178
86.8800 6859.6314
86.8900 6959.1244
86.9000 6733.3182
86.9100 6954.9504
86.9200 6941.5950
86.9300 7063.3944
86.9400 6936.8946
86.9500 7228.5864
86.9600 7001.6480
86.9700 6771.4006
86.9800 6641.1068
86.9900 6865.4614
87.0000 7236.8718
87.0100 6973.7304
87.0200 6728.5168
87.0300 6918.5352
87.0400 7039.7120
87.0500 6867.2364
87.0600 6664.7082
87.0700 7272.8272
87.0800 6816.8706
87.0900 6794.7880
87.1000 6465.9734
87.1100 6671.9918
87.1200 6805.1110
87.1300 6780.4476
87.1400 6795.4468
87.1500 6956.8286
87.1600 6693.5310
87.1700 6675.5380
87.1800 6538.3756
87.1900 6469.7494
87.2000 6666.6992
87.2100 6549.7388
87.2200 6665.1550
87.2300 6920.8700
87.2400 6987.0222
87.2500 6756.3614
87.2600 6887.1102
87.2700 6803.1930
87.2800 6638.4152
87.2900 6603.5564
87.3000 7287.1256
87.3100 6891.0222
87.3200 6957.4838
87.3300 6930.4964
87.3400 7114.7810
87.3500 7226.5014
87.3600 6781.9088
87.3700 7147.9900
87.3800 7016.8238
87.3900 6989.6484
87.4000 7026.5438
87.4100 6799.5678
87.4200 6574.2168
87.4300 6842.3038
87.4400 6801.8546
87.4500 6696.3834
87.4600 6644.4446
87.4700 6752.8308
87.4800 6712.7742
87.4900 6595.2608
87.5000 6766.1246
87.5100 6981.8904
87.5200 6932.7336
87.5300 6995.4842
87.5400 6714.6672
87.5500 6623.7756
87.5600 6595.3654
87.5700 6818.3582
87.5800 6676.3972
87.5900 6768.7252
87.6000 7304.8624
87.6100 7004.0266
87.6200 7222.5594
87.6300 6825.9058
87.6400 6928.1698
87.6500 6877.5920
87.6600 6556.4054
87.6700 6623.8270
87.6800 6948.0144
87.6900 6664.0014
87.7000 6677.6396
87.7100 7048.9234
87.7200 6844.7478
87.7300 6452.2180
87.7400 6413.1556
87.7500 6845.5680
87.7600 6876.1100
87.7700 6591.6248
87.7800 6026.0774
87.7900 6646.0482
87.8000 6592.9630
87.8100 6662.4044
87.8200 7154.7054
87.8300 6989.3482
87.8400 6842.1940
87.8500 6945.2434
87.8600 6663.7040
87.8700 6815.1274
87.8800 6716.2484
87.8900 6951.0214
87.9000 6942.6384
87.9100 7147.9900
87.9200 6939.7404
87.9300 6612.3270
87.9400 7039.8096
87.9500 6982.4162
87.9600 6940.5876
87.9700 6897.1484
87.9800 7048.1836
87.9900 6878.9144
88.0000 6527.9418
88.0100 6768.3142
88.0200 6656.4440
88.0300 6654.0486
88.0400 7032.3404
88.0500 7103.0574
88.0600 7092.8736
88.0700 6844.9650
88.0800 6612.2742
88.0900 7186.9230
88.1000 6900.5982
88.1100 6904.7648
88.1200 7073.8704
88.1300 6922.5652
88.1400 7034.2204
88.1500 6765.2682
88.1600 6831.2150
88.1700 7057.6848
88.1800 6908.8606
88.1900 7277.0370
88.2000 6841.3500
88.2100 6878.2600
88.2200 6660.0228
88.2300 6987.6726
88.2400 6768.4020
88.2500 6918.4498
88.2600 6581.5714
88.2700 6891.3428
88.2800 7108.3318
88.2900 6972.4032
88.3000 6853.5010
88.3100 6876.4916
88.3200 7161.9254
88.3300 7031.4348
88.3400 7186.0294
88.3500 7306.6846
88.3600 6618.4848
88.3700 6879.0616
88.3800 6731.9536
88.3900 6859.5378
88.4000 6582.3686
88.4100 6676.8592
88.4200 6956.3160
88.4300 6899.7860
88.4400 7138.8500
88.4500 6869.3562
88.4600 6651.4192
88.4700 6879.4434
88.4800 6962.3568
88.4900 7288.0306
88.5000 6956.9580
88.5100 6982.4886
88.5200 7362.2494
88.5300 6852.5708
88.5400 7011.8148
88.5500 6995.0406
88.5600 6486.1146
88.5700 6956.5022
88.5800 6785.8374
88.5900 7099.5182
88.6000 6689.0886
88.6100 7250.1644
88.6200 6836.8994
88.6300 6964.2220
88.6400 6641.5588
88.6500 6927.7140
88.6600 6943.5424
88.6700 7086.8930
88.6800 6982.0850
88.6900 7237.3624
88.7000 6554.5182
88.7100 6579.1472
88.7200 6966.4690
88.7300 7190.3580
88.7400 6871.7334
88.7500 6590.0952
88.7600 6903.6254
88.7700 6854.5020
88.7800 6881.1678
88.7900 6774.9162
88.8000 6883.1966
88.8100 7110.2434
88.8200 7226.8246
88.8300 6802.5638
88.8400 6587.5566
88.8500 7007.4332
88.8600 6960.2360
88.8700 6802.6460
88.8800 7166.1726
88.8900 7259.8380
88.9000 6772.5366
88.9100 6415.3678
88.9200 6808.4664
88.9300 7058.5514
88.9400 7023.6890
88.9500 6972.8410
88.9600 6788.3732
88.9700 6755.3980
88.9800 7042.1500
88.9900 6726.1356
89.0000 6807.6102
89.0100 6428.2638
89.0200 7089.3090
89.0300 6830.4078
89.0400 6892.1826
89.0500 6850.9742
89.0600 6956.7358
89.0700 6874.4662
89.0800 6810.9184
89.0900 6492.5874
89.1000 6771.4836
89.1100 6520.7768
89.1200 6678.7228
89.1300 7041.7130
89.1400 6560.5506
89.1500 6971.0686
89.1600 6660.8012
89.1700 6825.4456
89.1800 6814.8914
89.1900 6700.5070
89.2000 6695.0224
89.2100 6886.7872
89.2200 6698.2796
89.2300 7123.0958
89.2400 6795.0260
89.2500 6816.6854
89.2600 6741.6414
89.2700 6558.3890
89.2800 6751.6118
89.2900 6722.3690
89.3000 6903.4408
89.3100 6846.0970
89.3200 7113.3106
89.3300 6990.6892
89.3400 6952.9468
89.3500 6855.0732
89.3600 6660.3484
89.3700 6886.5162
89.3800 6807.5550
89.3900 6849.9732
89.4000 6609.7046
89.4100 6963.7704
89.4200 7244.3978
89.4300 6790.7142
89.4400 7092.4244
89.4500 6589.7038
89.4600 6829.9096
89.4700 6724.2024
89.4800 6777.8752
89.4900 6669.3168
89.5000 6930.9838
89.5100 7234.3180
89.5200 6431.9474
89.5300 6869.1544
89.5400 6703.8362
89.5500 7007.2184
89.5600 6504.0060
89.5700 6784.6082
89.5800 6707.6282
89.5900 6591.0206
89.6000 6829.7388
89.6100 7048.7948
89.6200 6940.7462
89.6300 6734.7018
89.6400 7102.6798
89.6500 6783.9258
89.6600 7288.8590
89.6700 7108.7516
89.6800 6552.5696
89.6900 6742.0686
89.7000 6795.9444
89.7100 6937.5642
89.7200 6689.9080
89.7300 6795.2290
89.7400 6909.3262
89.7500 7085.8204
89.7600 6902.2900
89.7700 6863.1372
89.7800 6957.6994
89.7900 7031.8458
89.8000 6892.8076
89.8100 6682.6420
89.8200 6941.9548
89.8300 7026.6732
89.8400 6808.2592
89.8500 6965.0676
89.8600 6962.2754
89.8700 7100.3378
89.8800 7013.0208
89.8900 7067.5764
89.9000 7122.4894
89.9100 6992.2868
89.9200 7189.8746
89.9300 6922.5056
89.9400 6828.4782
89.9500 6753.8484
89.9600 7085.5208
89.9700 7007.8124
89.9800 7200.0756
89.9900 6802.5866
90.0000 6693.5104
