         ID: 

    Comment: 

Scan Type: Normal
Start Angle: 15 deg.
Stop Angle: 90 deg.
Num Points: 3751
Step Size: 0.02 deg.
Datafile Res: 1600 
Scan Rate: 1.000000
Scan Mode: Continuous
Wavelength: 1.540562

Diffractometer Optics:
		Detector:
			 Type: Fixed Slits
			 X2 Configuration: No
		Tube: 
			 Type: Fixed Slits
			 X2 Configuration: No


Axis[0]
	 Selected   : no 
	 Iterative  : no 
	 Start Angle: 0.000000 
	 Stop Angle : 0.000000 
	 Step Size  : 0.000000 
	 Oscillating: no 

Axis[1]
	 Selected   : no 
	 Iterative  : no 
	 Start Angle: 0.000000 
	 Stop Angle : 0.000000 
	 Step Size  : 0.000000 
	 Oscillating: no 

Axis[2]
	 Selected   : no 
	 Iterative  : no 
	 Start Angle: 0.000000 
	 Stop Angle : 0.000000 
	 Step Size  : 0.000000 
	 Oscillating: no 

Axis[3]
	 Selected   : no 
	 Iterative  : no 
	 Start Angle: 0.000000 
	 Stop Angle : 0.000000 
	 Step Size  : 0.000000 
	 Oscillating: no 

Axis[4]
	 Selected   : no 
	 Iterative  : no 
	 Start Angle: 0.000000 
	 Stop Angle : 0.000000 
	 Step Size  : 0.000000 
	 Oscillating: no 

Axis[5]
	 Selected   : no 
	 Iterative  : no 
	 Start Angle: 0.000000 
	 Stop Angle : 0.000000 
	 Step Size  : 0.000000 
	 Oscillating: no 

Axis[6]
	 Selected   : no 
	 Iterative  : no 
	 Start Angle: 0.000000 
	 Stop Angle : 0.000000 
	 Step Size  : 0.000000 
	 Oscillating: no 

Axis[7]
	 Selected   : no 
	 Iterative  : no 
	 Start Angle: 0.000000 
	 Stop Angle : 0.000000 
	 Step Size  : 0.000000 
	 Oscillating: no 

Axis[8]
	 Selected   : no 
	 Iterative  : no 
	 Start Angle: 0.000000 
	 Stop Angle : 0.000000 
	 Step Size  : 0.000000 
	 Oscillating: no 

Axis[9]
	 Selected   : no 
	 Iterative  : no 
	 Start Angle: 0.000000 
	 Stop Angle : 0.000000 
	 Step Size  : 0.000000 
	 Oscillating: no 




	   Deg.    Counts 	   Time 	    ESD   

Range 0
  15.000	       106	    1200	    10.296
  15.020	       109	    1200	    10.440
  15.040	        95	    1200	     9.747
  15.060	       115	    1200	    10.724
  15.080	       104	    1200	    10.198
  15.100	       105	    1200	    10.247
  15.120	       109	    1200	    10.440
  15.140	       105	    1200	    10.247
  15.160	       106	    1200	    10.296
  15.180	        97	    1200	     9.849
  15.200	        93	    1200	     9.644
  15.220	       109	    1200	    10.440
  15.240	       115	    1200	    10.724
  15.260	       123	    1200	    11.091
  15.280	        95	    1200	     9.747
  15.300	       104	    1200	    10.198
  15.320	        92	    1200	     9.592
  15.340	       108	    1200	    10.392
  15.360	        99	    1200	     9.950
  15.380	       101	    1200	    10.050
  15.400	        98	    1200	     9.899
  15.420	        80	    1200	     8.944
  15.440	       118	    1200	    10.863
  15.460	        78	    1200	     8.832
  15.480	       101	    1200	    10.050
  15.500	       109	    1200	    10.440
  15.520	        97	    1200	     9.849
  15.540	        98	    1200	     9.899
  15.560	        87	    1200	     9.327
  15.580	        99	    1200	     9.950
  15.600	        94	    1200	     9.695
  15.620	        87	    1200	     9.327
  15.640	       101	    1200	    10.050
  15.660	       116	    1200	    10.770
  15.680	        99	    1200	     9.950
  15.700	        92	    1200	     9.592
  15.720	       102	    1200	    10.100
  15.740	       101	    1200	    10.050
  15.760	        97	    1200	     9.849
  15.780	        96	    1200	     9.798
  15.800	       109	    1200	    10.440
  15.820	        84	    1200	     9.165
  15.840	       104	    1200	    10.198
  15.860	       100	    1200	    10.000
  15.880	        96	    1200	     9.798
  15.900	        97	    1200	     9.849
  15.920	        95	    1200	     9.747
  15.940	        89	    1200	     9.434
  15.960	       105	    1200	    10.247
  15.980	        88	    1200	     9.381
  16.000	       107	    1200	    10.344
  16.020	       109	    1200	    10.440
  16.040	       104	    1200	    10.198
  16.060	        97	    1200	     9.849
  16.080	        98	    1200	     9.899
  16.100	        93	    1200	     9.644
  16.120	       104	    1200	    10.198
  16.140	       106	    1200	    10.296
  16.160	        83	    1200	     9.110
  16.180	        91	    1200	     9.539
  16.200	        88	    1200	     9.381
  16.220	        96	    1200	     9.798
  16.240	       103	    1200	    10.149
  16.260	        83	    1200	     9.110
  16.280	       102	    1200	    10.100
  16.300	        93	    1200	     9.644
  16.320	        86	    1200	     9.274
  16.340	        89	    1200	     9.434
  16.360	        91	    1200	     9.539
  16.380	        81	    1200	     9.000
  16.400	       105	    1200	    10.247
  16.420	       115	    1200	    10.724
  16.440	       106	    1200	    10.296
  16.460	       111	    1200	    10.536
  16.480	        81	    1200	     9.000
  16.500	        97	    1200	     9.849
  16.520	        86	    1200	     9.274
  16.540	       112	    1200	    10.583
  16.560	       120	    1200	    10.954
  16.580	        86	    1200	     9.274
  16.600	        85	    1200	     9.220
  16.620	       104	    1200	    10.198
  16.640	        82	    1200	     9.055
  16.660	        87	    1200	     9.327
  16.680	       108	    1200	    10.392
  16.700	        92	    1200	     9.592
  16.720	       107	    1200	    10.344
  16.740	        96	    1200	     9.798
  16.760	        96	    1200	     9.798
  16.780	        96	    1200	     9.798
  16.800	       100	    1200	    10.000
  16.820	        90	    1200	     9.487
  16.840	        95	    1200	     9.747
  16.860	       104	    1200	    10.198
  16.880	        92	    1200	     9.592
  16.900	       107	    1200	    10.344
  16.920	       119	    1200	    10.909
  16.940	        93	    1200	     9.644
  16.960	       102	    1200	    10.100
  16.980	        84	    1200	     9.165
  17.000	       106	    1200	    10.296
  17.020	       117	    1200	    10.817
  17.040	       105	    1200	    10.247
  17.060	        89	    1200	     9.434
  17.080	        93	    1200	     9.644
  17.100	       100	    1200	    10.000
  17.120	        89	    1200	     9.434
  17.140	       100	    1200	    10.000
  17.160	        74	    1200	     8.602
  17.180	        99	    1200	     9.950
  17.200	        96	    1200	     9.798
  17.220	        96	    1200	     9.798
  17.240	        98	    1200	     9.899
  17.260	        96	    1200	     9.798
  17.280	        79	    1200	     8.888
  17.300	        75	    1200	     8.660
  17.320	        92	    1200	     9.592
  17.340	        84	    1200	     9.165
  17.360	        95	    1200	     9.747
  17.380	        91	    1200	     9.539
  17.400	       113	    1200	    10.630
  17.420	       102	    1200	    10.100
  17.440	        93	    1200	     9.644
  17.460	        98	    1200	     9.899
  17.480	        95	    1200	     9.747
  17.500	       103	    1200	    10.149
  17.520	       101	    1200	    10.050
  17.540	       106	    1200	    10.296
  17.560	        99	    1200	     9.950
  17.580	       113	    1200	    10.630
  17.600	       115	    1200	    10.724
  17.620	       107	    1200	    10.344
  17.640	        97	    1200	     9.849
  17.660	        88	    1200	     9.381
  17.680	       106	    1200	    10.296
  17.700	        91	    1200	     9.539
  17.720	        98	    1200	     9.899
  17.740	        99	    1200	     9.950
  17.760	       110	    1200	    10.488
  17.780	       122	    1200	    11.045
  17.800	        88	    1200	     9.381
  17.820	       109	    1200	    10.440
  17.840	        91	    1200	     9.539
  17.860	        98	    1200	     9.899
  17.880	        84	    1200	     9.165
  17.900	       105	    1200	    10.247
  17.920	        84	    1200	     9.165
  17.940	        97	    1200	     9.849
  17.960	       110	    1200	    10.488
  17.980	       102	    1200	    10.100
  18.000	        96	    1200	     9.798
  18.020	       100	    1200	    10.000
  18.040	       106	    1200	    10.296
  18.060	        94	    1200	     9.695
  18.080	       105	    1200	    10.247
  18.100	       100	    1200	    10.000
  18.120	       111	    1200	    10.536
  18.140	        95	    1200	     9.747
  18.160	        79	    1200	     8.888
  18.180	        96	    1200	     9.798
  18.200	        97	    1200	     9.849
  18.220	        87	    1200	     9.327
  18.240	        89	    1200	     9.434
  18.260	        99	    1200	     9.950
  18.280	       117	    1200	    10.817
  18.300	        94	    1200	     9.695
  18.320	        98	    1200	     9.899
  18.340	       109	    1200	    10.440
  18.360	       106	    1200	    10.296
  18.380	       101	    1200	    10.050
  18.400	       112	    1200	    10.583
  18.420	        82	    1200	     9.055
  18.440	       103	    1200	    10.149
  18.460	       121	    1200	    11.000
  18.480	       104	    1200	    10.198
  18.500	        94	    1200	     9.695
  18.520	        90	    1200	     9.487
  18.540	        91	    1200	     9.539
  18.560	        77	    1200	     8.775
  18.580	        83	    1200	     9.110
  18.600	        96	    1200	     9.798
  18.620	       101	    1200	    10.050
  18.640	        90	    1200	     9.487
  18.660	        88	    1200	     9.381
  18.680	       121	    1200	    11.000
  18.700	       114	    1200	    10.677
  18.720	       100	    1200	    10.000
  18.740	        84	    1200	     9.165
  18.760	        96	    1200	     9.798
  18.780	        73	    1200	     8.544
  18.800	        94	    1200	     9.695
  18.820	        93	    1200	     9.644
  18.840	       107	    1200	    10.344
  18.860	        99	    1200	     9.950
  18.880	       102	    1200	    10.100
  18.900	        99	    1200	     9.950
  18.920	       101	    1200	    10.050
  18.940	        79	    1200	     8.888
  18.960	        84	    1200	     9.165
  18.980	        88	    1200	     9.381
  19.000	        99	    1200	     9.950
  19.020	        90	    1200	     9.487
  19.040	       103	    1200	    10.149
  19.060	       104	    1200	    10.198
  19.080	        91	    1200	     9.539
  19.100	        94	    1200	     9.695
  19.120	        96	    1200	     9.798
  19.140	        87	    1200	     9.327
  19.160	        95	    1200	     9.747
  19.180	        92	    1200	     9.592
  19.200	        91	    1200	     9.539
  19.220	        78	    1200	     8.832
  19.240	       104	    1200	    10.198
  19.260	        99	    1200	     9.950
  19.280	        96	    1200	     9.798
  19.300	        97	    1200	     9.849
  19.320	       107	    1200	    10.344
  19.340	        81	    1200	     9.000
  19.360	        77	    1200	     8.775
  19.380	        88	    1200	     9.381
  19.400	       103	    1200	    10.149
  19.420	       105	    1200	    10.247
  19.440	        88	    1200	     9.381
  19.460	        99	    1200	     9.950
  19.480	        97	    1200	     9.849
  19.500	        90	    1200	     9.487
  19.520	        91	    1200	     9.539
  19.540	       103	    1200	    10.149
  19.560	        96	    1200	     9.798
  19.580	       120	    1200	    10.954
  19.600	        93	    1200	     9.644
  19.620	        86	    1200	     9.274
  19.640	        83	    1200	     9.110
  19.660	       101	    1200	    10.050
  19.680	       101	    1200	    10.050
  19.700	        70	    1200	     8.367
  19.720	        86	    1200	     9.274
  19.740	        86	    1200	     9.274
  19.760	        81	    1200	     9.000
  19.780	       100	    1200	    10.000
  19.800	        83	    1200	     9.110
  19.820	        91	    1200	     9.539
  19.840	        94	    1200	     9.695
  19.860	        83	    1200	     9.110
  19.880	        96	    1200	     9.798
  19.900	        94	    1200	     9.695
  19.920	        95	    1200	     9.747
  19.940	        99	    1200	     9.950
  19.960	        70	    1200	     8.367
  19.980	        97	    1200	     9.849
  20.000	        76	    1200	     8.718
  20.020	        97	    1200	     9.849
  20.040	       104	    1200	    10.198
  20.060	        99	    1200	     9.950
  20.080	        94	    1200	     9.695
  20.100	        87	    1200	     9.327
  20.120	        86	    1200	     9.274
  20.140	        97	    1200	     9.849
  20.160	        94	    1200	     9.695
  20.180	       108	    1200	    10.392
  20.200	        89	    1200	     9.434
  20.220	        90	    1200	     9.487
  20.240	        84	    1200	     9.165
  20.260	        97	    1200	     9.849
  20.280	        96	    1200	     9.798
  20.300	       101	    1200	    10.050
  20.320	        91	    1200	     9.539
  20.340	        94	    1200	     9.695
  20.360	        97	    1200	     9.849
  20.380	        88	    1200	     9.381
  20.400	       100	    1200	    10.000
  20.420	        96	    1200	     9.798
  20.440	       106	    1200	    10.296
  20.460	        92	    1200	     9.592
  20.480	        99	    1200	     9.950
  20.500	       111	    1200	    10.536
  20.520	       103	    1200	    10.149
  20.540	        84	    1200	     9.165
  20.560	        89	    1200	     9.434
  20.580	       100	    1200	    10.000
  20.600	        93	    1200	     9.644
  20.620	        97	    1200	     9.849
  20.640	        92	    1200	     9.592
  20.660	        87	    1200	     9.327
  20.680	       106	    1200	    10.296
  20.700	        94	    1200	     9.695
  20.720	        98	    1200	     9.899
  20.740	        89	    1200	     9.434
  20.760	        75	    1200	     8.660
  20.780	       100	    1200	    10.000
  20.800	        86	    1200	     9.274
  20.820	       107	    1200	    10.344
  20.840	        95	    1200	     9.747
  20.860	       106	    1200	    10.296
  20.880	       102	    1200	    10.100
  20.900	        91	    1200	     9.539
  20.920	        82	    1200	     9.055
  20.940	        91	    1200	     9.539
  20.960	        96	    1200	     9.798
  20.980	       101	    1200	    10.050
  21.000	        99	    1200	     9.950
  21.020	       110	    1200	    10.488
  21.040	       103	    1200	    10.149
  21.060	        93	    1200	     9.644
  21.080	        97	    1200	     9.849
  21.100	        92	    1200	     9.592
  21.120	        90	    1200	     9.487
  21.140	        85	    1200	     9.220
  21.160	       105	    1200	    10.247
  21.180	        90	    1200	     9.487
  21.200	        99	    1200	     9.950
  21.220	        85	    1200	     9.220
  21.240	        91	    1200	     9.539
  21.260	        92	    1200	     9.592
  21.280	        97	    1200	     9.849
  21.300	        96	    1200	     9.798
  21.320	       108	    1200	    10.392
  21.340	       106	    1200	    10.296
  21.360	       108	    1200	    10.392
  21.380	        94	    1200	     9.695
  21.400	       102	    1200	    10.100
  21.420	        99	    1200	     9.950
  21.440	       101	    1200	    10.050
  21.460	        83	    1200	     9.110
  21.480	       110	    1200	    10.488
  21.500	       100	    1200	    10.000
  21.520	        83	    1200	     9.110
  21.540	        90	    1200	     9.487
  21.560	        80	    1200	     8.944
  21.580	        90	    1200	     9.487
  21.600	        95	    1200	     9.747
  21.620	        82	    1200	     9.055
  21.640	        90	    1200	     9.487
  21.660	        92	    1200	     9.592
  21.680	       121	    1200	    11.000
  21.700	        93	    1200	     9.644
  21.720	        99	    1200	     9.950
  21.740	        99	    1200	     9.950
  21.760	       104	    1200	    10.198
  21.780	       106	    1200	    10.296
  21.800	        96	    1200	     9.798
  21.820	        97	    1200	     9.849
  21.840	        92	    1200	     9.592
  21.860	        83	    1200	     9.110
  21.880	        82	    1200	     9.055
  21.900	        99	    1200	     9.950
  21.920	        88	    1200	     9.381
  21.940	        92	    1200	     9.592
  21.960	       114	    1200	    10.677
  21.980	       106	    1200	    10.296
  22.000	       103	    1200	    10.149
  22.020	       110	    1200	    10.488
  22.040	       105	    1200	    10.247
  22.060	        85	    1200	     9.220
  22.080	        86	    1200	     9.274
  22.100	       101	    1200	    10.050
  22.120	       101	    1200	    10.050
  22.140	        83	    1200	     9.110
  22.160	       101	    1200	    10.050
  22.180	        87	    1200	     9.327
  22.200	        91	    1200	     9.539
  22.220	       103	    1200	    10.149
  22.240	       119	    1200	    10.909
  22.260	       101	    1200	    10.050
  22.280	       109	    1200	    10.440
  22.300	       114	    1200	    10.677
  22.320	       103	    1200	    10.149
  22.340	       112	    1200	    10.583
  22.360	       102	    1200	    10.100
  22.380	        90	    1200	     9.487
  22.400	       112	    1200	    10.583
  22.420	       125	    1200	    11.180
  22.440	       118	    1200	    10.863
  22.460	       111	    1200	    10.536
  22.480	       137	    1200	    11.705
  22.500	       126	    1200	    11.225
  22.520	       143	    1200	    11.958
  22.540	       137	    1200	    11.705
  22.560	       146	    1200	    12.083
  22.580	       133	    1200	    11.533
  22.600	       121	    1200	    11.000
  22.620	       110	    1200	    10.488
  22.640	       111	    1200	    10.536
  22.660	       118	    1200	    10.863
  22.680	        86	    1200	     9.274
  22.700	       103	    1200	    10.149
  22.720	        95	    1200	     9.747
  22.740	        91	    1200	     9.539
  22.760	       101	    1200	    10.050
  22.780	        86	    1200	     9.274
  22.800	       107	    1200	    10.344
  22.820	        99	    1200	     9.950
  22.840	        95	    1200	     9.747
  22.860	        97	    1200	     9.849
  22.880	        92	    1200	     9.592
  22.900	        96	    1200	     9.798
  22.920	        94	    1200	     9.695
  22.940	       109	    1200	    10.440
  22.960	       100	    1200	    10.000
  22.980	       115	    1200	    10.724
  23.000	        85	    1200	     9.220
  23.020	       105	    1200	    10.247
  23.040	        88	    1200	     9.381
  23.060	        79	    1200	     8.888
  23.080	       108	    1200	    10.392
  23.100	        99	    1200	     9.950
  23.120	        86	    1200	     9.274
  23.140	        95	    1200	     9.747
  23.160	        86	    1200	     9.274
  23.180	        85	    1200	     9.220
  23.200	        79	    1200	     8.888
  23.220	       101	    1200	    10.050
  23.240	        73	    1200	     8.544
  23.260	        94	    1200	     9.695
  23.280	        98	    1200	     9.899
  23.300	       102	    1200	    10.100
  23.320	       105	    1200	    10.247
  23.340	        93	    1200	     9.644
  23.360	        92	    1200	     9.592
  23.380	        87	    1200	     9.327
  23.400	       106	    1200	    10.296
  23.420	        91	    1200	     9.539
  23.440	        94	    1200	     9.695
  23.460	        80	    1200	     8.944
  23.480	        91	    1200	     9.539
  23.500	        78	    1200	     8.832
  23.520	        99	    1200	     9.950
  23.540	        87	    1200	     9.327
  23.560	        81	    1200	     9.000
  23.580	        94	    1200	     9.695
  23.600	        97	    1200	     9.849
  23.620	        86	    1200	     9.274
  23.640	        94	    1200	     9.695
  23.660	        80	    1200	     8.944
  23.680	        96	    1200	     9.798
  23.700	        87	    1200	     9.327
  23.720	        88	    1200	     9.381
  23.740	        92	    1200	     9.592
  23.760	        88	    1200	     9.381
  23.780	       105	    1200	    10.247
  23.800	       106	    1200	    10.296
  23.820	        74	    1200	     8.602
  23.840	        86	    1200	     9.274
  23.860	        83	    1200	     9.110
  23.880	        95	    1200	     9.747
  23.900	        83	    1200	     9.110
  23.920	       106	    1200	    10.296
  23.940	        78	    1200	     8.832
  23.960	        89	    1200	     9.434
  23.980	       117	    1200	    10.817
  24.000	       106	    1200	    10.296
  24.020	       108	    1200	    10.392
  24.040	        85	    1200	     9.220
  24.060	       100	    1200	    10.000
  24.080	        91	    1200	     9.539
  24.100	        83	    1200	     9.110
  24.120	        91	    1200	     9.539
  24.140	        92	    1200	     9.592
  24.160	        74	    1200	     8.602
  24.180	        82	    1200	     9.055
  24.200	        89	    1200	     9.434
  24.220	       125	    1200	    11.180
  24.240	        79	    1200	     8.888
  24.260	        90	    1200	     9.487
  24.280	        90	    1200	     9.487
  24.300	        94	    1200	     9.695
  24.320	        95	    1200	     9.747
  24.340	        91	    1200	     9.539
  24.360	        85	    1200	     9.220
  24.380	        71	    1200	     8.426
  24.400	        94	    1200	     9.695
  24.420	        88	    1200	     9.381
  24.440	        78	    1200	     8.832
  24.460	        70	    1200	     8.367
  24.480	        94	    1200	     9.695
  24.500	        82	    1200	     9.055
  24.520	        80	    1200	     8.944
  24.540	        93	    1200	     9.644
  24.560	        80	    1200	     8.944
  24.580	        75	    1200	     8.660
  24.600	        88	    1200	     9.381
  24.620	       106	    1200	    10.296
  24.640	        90	    1200	     9.487
  24.660	        88	    1200	     9.381
  24.680	        74	    1200	     8.602
  24.700	        71	    1200	     8.426
  24.720	        80	    1200	     8.944
  24.740	       100	    1200	    10.000
  24.760	        85	    1200	     9.220
  24.780	        71	    1200	     8.426
  24.800	        87	    1200	     9.327
  24.820	        88	    1200	     9.381
  24.840	        82	    1200	     9.055
  24.860	        92	    1200	     9.592
  24.880	        81	    1200	     9.000
  24.900	        94	    1200	     9.695
  24.920	        72	    1200	     8.485
  24.940	        79	    1200	     8.888
  24.960	        80	    1200	     8.944
  24.980	        89	    1200	     9.434
  25.000	        77	    1200	     8.775
  25.020	        91	    1200	     9.539
  25.040	        83	    1200	     9.110
  25.060	        79	    1200	     8.888
  25.080	        93	    1200	     9.644
  25.100	        88	    1200	     9.381
  25.120	        74	    1200	     8.602
  25.140	        82	    1200	     9.055
  25.160	        86	    1200	     9.274
  25.180	        91	    1200	     9.539
  25.200	        78	    1200	     8.832
  25.220	        52	    1200	     7.211
  25.240	        87	    1200	     9.327
  25.260	        89	    1200	     9.434
  25.280	        86	    1200	     9.274
  25.300	        68	    1200	     8.246
  25.320	        87	    1200	     9.327
  25.340	        84	    1200	     9.165
  25.360	        85	    1200	     9.220
  25.380	        70	    1200	     8.367
  25.400	        86	    1200	     9.274
  25.420	        83	    1200	     9.110
  25.440	        76	    1200	     8.718
  25.460	        89	    1200	     9.434
  25.480	        92	    1200	     9.592
  25.500	        86	    1200	     9.274
  25.520	        80	    1200	     8.944
  25.540	        74	    1200	     8.602
  25.560	        70	    1200	     8.367
  25.580	        75	    1200	     8.660
  25.600	        85	    1200	     9.220
  25.620	        79	    1200	     8.888
  25.640	        74	    1200	     8.602
  25.660	        65	    1200	     8.062
  25.680	        77	    1200	     8.775
  25.700	        92	    1200	     9.592
  25.720	        76	    1200	     8.718
  25.740	        79	    1200	     8.888
  25.760	        89	    1200	     9.434
  25.780	        77	    1200	     8.775
  25.800	        74	    1200	     8.602
  25.820	        85	    1200	     9.220
  25.840	        72	    1200	     8.485
  25.860	        96	    1200	     9.798
  25.880	        71	    1200	     8.426
  25.900	        88	    1200	     9.381
  25.920	        71	    1200	     8.426
  25.940	        83	    1200	     9.110
  25.960	        77	    1200	     8.775
  25.980	        80	    1200	     8.944
  26.000	        69	    1200	     8.307
  26.020	        70	    1200	     8.367
  26.040	        89	    1200	     9.434
  26.060	        83	    1200	     9.110
  26.080	        76	    1200	     8.718
  26.100	        67	    1200	     8.185
  26.120	        67	    1200	     8.185
  26.140	       100	    1200	    10.000
  26.160	        70	    1200	     8.367
  26.180	        91	    1200	     9.539
  26.200	        89	    1200	     9.434
  26.220	        99	    1200	     9.950
  26.240	        78	    1200	     8.832
  26.260	        66	    1200	     8.124
  26.280	        59	    1200	     7.681
  26.300	        73	    1200	     8.544
  26.320	        75	    1200	     8.660
  26.340	        93	    1200	     9.644
  26.360	        63	    1200	     7.937
  26.380	        76	    1200	     8.718
  26.400	        76	    1200	     8.718
  26.420	        69	    1200	     8.307
  26.440	        87	    1200	     9.327
  26.460	        86	    1200	     9.274
  26.480	        71	    1200	     8.426
  26.500	        60	    1200	     7.746
  26.520	        70	    1200	     8.367
  26.540	        73	    1200	     8.544
  26.560	        78	    1200	     8.832
  26.580	        82	    1200	     9.055
  26.600	        62	    1200	     7.874
  26.620	        77	    1200	     8.775
  26.640	        77	    1200	     8.775
  26.660	        78	    1200	     8.832
  26.680	        79	    1200	     8.888
  26.700	        74	    1200	     8.602
  26.720	        82	    1200	     9.055
  26.740	        59	    1200	     7.681
  26.760	        81	    1200	     9.000
  26.780	        65	    1200	     8.062
  26.800	        65	    1200	     8.062
  26.820	        71	    1200	     8.426
  26.840	        67	    1200	     8.185
  26.860	        81	    1200	     9.000
  26.880	        65	    1200	     8.062
  26.900	        67	    1200	     8.185
  26.920	        71	    1200	     8.426
  26.940	        68	    1200	     8.246
  26.960	        68	    1200	     8.246
  26.980	        66	    1200	     8.124
  27.000	        76	    1200	     8.718
  27.020	        72	    1200	     8.485
  27.040	        53	    1200	     7.280
  27.060	        81	    1200	     9.000
  27.080	        71	    1200	     8.426
  27.100	        68	    1200	     8.246
  27.120	        65	    1200	     8.062
  27.140	        69	    1200	     8.307
  27.160	        61	    1200	     7.810
  27.180	        59	    1200	     7.681
  27.200	        65	    1200	     8.062
  27.220	        78	    1200	     8.832
  27.240	        78	    1200	     8.832
  27.260	        84	    1200	     9.165
  27.280	        67	    1200	     8.185
  27.300	        78	    1200	     8.832
  27.320	        69	    1200	     8.307
  27.340	        68	    1200	     8.246
  27.360	        74	    1200	     8.602
  27.380	        67	    1200	     8.185
  27.400	        78	    1200	     8.832
  27.420	        80	    1200	     8.944
  27.440	        47	    1200	     6.856
  27.460	        70	    1200	     8.367
  27.480	        69	    1200	     8.307
  27.500	        51	    1200	     7.141
  27.520	        83	    1200	     9.110
  27.540	        62	    1200	     7.874
  27.560	        71	    1200	     8.426
  27.580	        75	    1200	     8.660
  27.600	        71	    1200	     8.426
  27.620	        62	    1200	     7.874
  27.640	        49	    1200	     7.000
  27.660	        50	    1200	     7.071
  27.680	        55	    1200	     7.416
  27.700	        65	    1200	     8.062
  27.720	        60	    1200	     7.746
  27.740	        60	    1200	     7.746
  27.760	        77	    1200	     8.775
  27.780	        69	    1200	     8.307
  27.800	        72	    1200	     8.485
  27.820	        55	    1200	     7.416
  27.840	        61	    1200	     7.810
  27.860	        58	    1200	     7.616
  27.880	        52	    1200	     7.211
  27.900	        68	    1200	     8.246
  27.920	        65	    1200	     8.062
  27.940	        62	    1200	     7.874
  27.960	        56	    1200	     7.483
  27.980	        66	    1200	     8.124
  28.000	        53	    1200	     7.280
  28.020	        51	    1200	     7.141
  28.040	        56	    1200	     7.483
  28.060	        55	    1200	     7.416
  28.080	        66	    1200	     8.124
  28.100	        55	    1200	     7.416
  28.120	        48	    1200	     6.928
  28.140	        46	    1200	     6.782
  28.160	        50	    1200	     7.071
  28.180	        55	    1200	     7.416
  28.200	        63	    1200	     7.937
  28.220	        65	    1200	     8.062
  28.240	        61	    1200	     7.810
  28.260	        54	    1200	     7.348
  28.280	        56	    1200	     7.483
  28.300	        53	    1200	     7.280
  28.320	        57	    1200	     7.550
  28.340	        55	    1200	     7.416
  28.360	        58	    1200	     7.616
  28.380	        52	    1200	     7.211
  28.400	        56	    1200	     7.483
  28.420	        56	    1200	     7.483
  28.440	        46	    1200	     6.782
  28.460	        55	    1200	     7.416
  28.480	        68	    1200	     8.246
  28.500	        67	    1200	     8.185
  28.520	        64	    1200	     8.000
  28.540	        47	    1200	     6.856
  28.560	        57	    1200	     7.550
  28.580	        55	    1200	     7.416
  28.600	        48	    1200	     6.928
  28.620	        54	    1200	     7.348
  28.640	        47	    1200	     6.856
  28.660	        59	    1200	     7.681
  28.680	        41	    1200	     6.403
  28.700	        54	    1200	     7.348
  28.720	        62	    1200	     7.874
  28.740	        48	    1200	     6.928
  28.760	        42	    1200	     6.481
  28.780	        52	    1200	     7.211
  28.800	        53	    1200	     7.280
  28.820	        49	    1200	     7.000
  28.840	        58	    1200	     7.616
  28.860	        47	    1200	     6.856
  28.880	        51	    1200	     7.141
  28.900	        44	    1200	     6.633
  28.920	        69	    1200	     8.307
  28.940	        47	    1200	     6.856
  28.960	        58	    1200	     7.616
  28.980	        46	    1200	     6.782
  29.000	        50	    1200	     7.071
  29.020	        41	    1200	     6.403
  29.040	        61	    1200	     7.810
  29.060	        61	    1200	     7.810
  29.080	        56	    1200	     7.483
  29.100	        42	    1200	     6.481
  29.120	        48	    1200	     6.928
  29.140	        55	    1200	     7.416
  29.160	        54	    1200	     7.348
  29.180	        45	    1200	     6.708
  29.200	        51	    1200	     7.141
  29.220	        41	    1200	     6.403
  29.240	        38	    1200	     6.164
  29.260	        50	    1200	     7.071
  29.280	        57	    1200	     7.550
  29.300	        41	    1200	     6.403
  29.320	        44	    1200	     6.633
  29.340	        57	    1200	     7.550
  29.360	        47	    1200	     6.856
  29.380	        47	    1200	     6.856
  29.400	        58	    1200	     7.616
  29.420	        43	    1200	     6.557
  29.440	        35	    1200	     5.916
  29.460	        47	    1200	     6.856
  29.480	        59	    1200	     7.681
  29.500	        30	    1200	     5.477
  29.520	        41	    1200	     6.403
  29.540	        36	    1200	     6.000
  29.560	        38	    1200	     6.164
  29.580	        48	    1200	     6.928
  29.600	        34	    1200	     5.831
  29.620	        51	    1200	     7.141
  29.640	        53	    1200	     7.280
  29.660	        47	    1200	     6.856
  29.680	        43	    1200	     6.557
  29.700	        49	    1200	     7.000
  29.720	        30	    1200	     5.477
  29.740	        39	    1200	     6.245
  29.760	        49	    1200	     7.000
  29.780	        55	    1200	     7.416
  29.800	        48	    1200	     6.928
  29.820	        42	    1200	     6.481
  29.840	        43	    1200	     6.557
  29.860	        49	    1200	     7.000
  29.880	        62	    1200	     7.874
  29.900	        53	    1200	     7.280
  29.920	        48	    1200	     6.928
  29.940	        52	    1200	     7.211
  29.960	        47	    1200	     6.856
  29.980	        49	    1200	     7.000
  30.000	        51	    1200	     7.141
  30.020	        50	    1200	     7.071
  30.040	        36	    1200	     6.000
  30.060	        47	    1200	     6.856
  30.080	        47	    1200	     6.856
  30.100	        45	    1200	     6.708
  30.120	        47	    1200	     6.856
  30.140	        46	    1200	     6.782
  30.160	        47	    1200	     6.856
  30.180	        49	    1200	     7.000
  30.200	        46	    1200	     6.782
  30.220	        53	    1200	     7.280
  30.240	        32	    1200	     5.657
  30.260	        50	    1200	     7.071
  30.280	        46	    1200	     6.782
  30.300	        51	    1200	     7.141
  30.320	        51	    1200	     7.141
  30.340	        51	    1200	     7.141
  30.360	        51	    1200	     7.141
  30.380	        39	    1200	     6.245
  30.400	        43	    1200	     6.557
  30.420	        45	    1200	     6.708
  30.440	        46	    1200	     6.782
  30.460	        48	    1200	     6.928
  30.480	        45	    1200	     6.708
  30.500	        44	    1200	     6.633
  30.520	        43	    1200	     6.557
  30.540	        42	    1200	     6.481
  30.560	        53	    1200	     7.280
  30.580	        50	    1200	     7.071
  30.600	        37	    1200	     6.083
  30.620	        40	    1200	     6.325
  30.640	        49	    1200	     7.000
  30.660	        43	    1200	     6.557
  30.680	        36	    1200	     6.000
  30.700	        44	    1200	     6.633
  30.720	        49	    1200	     7.000
  30.740	        44	    1200	     6.633
  30.760	        36	    1200	     6.000
  30.780	        43	    1200	     6.557
  30.800	        61	    1200	     7.810
  30.820	        38	    1200	     6.164
  30.840	        43	    1200	     6.557
  30.860	        44	    1200	     6.633
  30.880	        46	    1200	     6.782
  30.900	        59	    1200	     7.681
  30.920	        39	    1200	     6.245
  30.940	        39	    1200	     6.245
  30.960	        51	    1200	     7.141
  30.980	        59	    1200	     7.681
  31.000	        62	    1200	     7.874
  31.020	        47	    1200	     6.856
  31.040	        45	    1200	     6.708
  31.060	        49	    1200	     7.000
  31.080	        50	    1200	     7.071
  31.100	        49	    1200	     7.000
  31.120	        54	    1200	     7.348
  31.140	        49	    1200	     7.000
  31.160	        54	    1200	     7.348
  31.180	        65	    1200	     8.062
  31.200	        55	    1200	     7.416
  31.220	        63	    1200	     7.937
  31.240	        59	    1200	     7.681
  31.260	        65	    1200	     8.062
  31.280	        77	    1200	     8.775
  31.300	        65	    1200	     8.062
  31.320	        61	    1200	     7.810
  31.340	        74	    1200	     8.602
  31.360	        61	    1200	     7.810
  31.380	        78	    1200	     8.832
  31.400	        92	    1200	     9.592
  31.420	        97	    1200	     9.849
  31.440	        92	    1200	     9.592
  31.460	        95	    1200	     9.747
  31.480	        94	    1200	     9.695
  31.500	        81	    1200	     9.000
  31.520	        96	    1200	     9.798
  31.540	       108	    1200	    10.392
  31.560	       113	    1200	    10.630
  31.580	       106	    1200	    10.296
  31.600	       112	    1200	    10.583
  31.620	       105	    1200	    10.247
  31.640	        82	    1200	     9.055
  31.660	       107	    1200	    10.344
  31.680	        75	    1200	     8.660
  31.700	       108	    1200	    10.392
  31.720	       121	    1200	    11.000
  31.740	       114	    1200	    10.677
  31.760	       111	    1200	    10.536
  31.780	       142	    1200	    11.916
  31.800	       135	    1200	    11.619
  31.820	       148	    1200	    12.166
  31.840	       178	    1200	    13.342
  31.860	       239	    1200	    15.460
  31.880	       255	    1200	    15.969
  31.900	       266	    1200	    16.310
  31.920	       376	    1200	    19.391
  31.940	       526	    1200	    22.935
  31.960	       632	    1200	    25.140
  31.980	       794	    1200	    28.178
  32.000	       904	    1200	    30.067
  32.020	      1165	    1200	    34.132
  32.040	      1521	    1200	    39.000
  32.060	      1800	    1200	    42.426
  32.080	      2147	    1200	    46.336
  32.100	      2340	    1200	    48.374
  32.120	      2629	    1200	    51.274
  32.140	      2718	    1200	    52.134
  32.160	      2610	    1200	    51.088
  32.180	      2487	    1200	    49.870
  32.200	      2137	    1200	    46.228
  32.220	      1866	    1200	    43.197
  32.240	      1666	    1200	    40.817
  32.260	      1303	    1200	    36.097
  32.280	      1030	    1200	    32.094
  32.300	       751	    1200	    27.404
  32.320	       641	    1200	    25.318
  32.340	       490	    1200	    22.136
  32.360	       381	    1200	    19.519
  32.380	       300	    1200	    17.321
  32.400	       279	    1200	    16.703
  32.420	       190	    1200	    13.784
  32.440	       196	    1200	    14.000
  32.460	       124	    1200	    11.136
  32.480	       105	    1200	    10.247
  32.500	       100	    1200	    10.000
  32.520	        99	    1200	     9.950
  32.540	        79	    1200	     8.888
  32.560	        77	    1200	     8.775
  32.580	        91	    1200	     9.539
  32.600	        65	    1200	     8.062
  32.620	        81	    1200	     9.000
  32.640	        74	    1200	     8.602
  32.660	        65	    1200	     8.062
  32.680	        65	    1200	     8.062
  32.700	        73	    1200	     8.544
  32.720	        66	    1200	     8.124
  32.740	        60	    1200	     7.746
  32.760	        58	    1200	     7.616
  32.780	        56	    1200	     7.483
  32.800	        49	    1200	     7.000
  32.820	        63	    1200	     7.937
  32.840	        54	    1200	     7.348
  32.860	        56	    1200	     7.483
  32.880	        67	    1200	     8.185
  32.900	        44	    1200	     6.633
  32.920	        44	    1200	     6.633
  32.940	        48	    1200	     6.928
  32.960	        40	    1200	     6.325
  32.980	        47	    1200	     6.856
  33.000	        52	    1200	     7.211
  33.020	        44	    1200	     6.633
  33.040	        56	    1200	     7.483
  33.060	        49	    1200	     7.000
  33.080	        39	    1200	     6.245
  33.100	        53	    1200	     7.280
  33.120	        47	    1200	     6.856
  33.140	        53	    1200	     7.280
  33.160	        48	    1200	     6.928
  33.180	        40	    1200	     6.325
  33.200	        43	    1200	     6.557
  33.220	        56	    1200	     7.483
  33.240	        46	    1200	     6.782
  33.260	        46	    1200	     6.782
  33.280	        41	    1200	     6.403
  33.300	        46	    1200	     6.782
  33.320	        46	    1200	     6.782
  33.340	        58	    1200	     7.616
  33.360	        40	    1200	     6.325
  33.380	        47	    1200	     6.856
  33.400	        31	    1200	     5.568
  33.420	        42	    1200	     6.481
  33.440	        41	    1200	     6.403
  33.460	        38	    1200	     6.164
  33.480	        29	    1200	     5.385
  33.500	        37	    1200	     6.083
  33.520	        36	    1200	     6.000
  33.540	        28	    1200	     5.292
  33.560	        51	    1200	     7.141
  33.580	        31	    1200	     5.568
  33.600	        39	    1200	     6.245
  33.620	        39	    1200	     6.245
  33.640	        34	    1200	     5.831
  33.660	        30	    1200	     5.477
  33.680	        43	    1200	     6.557
  33.700	        45	    1200	     6.708
  33.720	        37	    1200	     6.083
  33.740	        35	    1200	     5.916
  33.760	        39	    1200	     6.245
  33.780	        46	    1200	     6.782
  33.800	        48	    1200	     6.928
  33.820	        46	    1200	     6.782
  33.840	        46	    1200	     6.782
  33.860	        33	    1200	     5.745
  33.880	        42	    1200	     6.481
  33.900	        27	    1200	     5.196
  33.920	        40	    1200	     6.325
  33.940	        38	    1200	     6.164
  33.960	        41	    1200	     6.403
  33.980	        30	    1200	     5.477
  34.000	        36	    1200	     6.000
  34.020	        32	    1200	     5.657
  34.040	        46	    1200	     6.782
  34.060	        31	    1200	     5.568
  34.080	        39	    1200	     6.245
  34.100	        44	    1200	     6.633
  34.120	        29	    1200	     5.385
  34.140	        37	    1200	     6.083
  34.160	        39	    1200	     6.245
  34.180	        36	    1200	     6.000
  34.200	        28	    1200	     5.292
  34.220	        32	    1200	     5.657
  34.240	        37	    1200	     6.083
  34.260	        30	    1200	     5.477
  34.280	        34	    1200	     5.831
  34.300	        36	    1200	     6.000
  34.320	        33	    1200	     5.745
  34.340	        22	    1200	     4.690
  34.360	        36	    1200	     6.000
  34.380	        40	    1200	     6.325
  34.400	        32	    1200	     5.657
  34.420	        23	    1200	     4.796
  34.440	        39	    1200	     6.245
  34.460	        33	    1200	     5.745
  34.480	        21	    1200	     4.583
  34.500	        37	    1200	     6.083
  34.520	        24	    1200	     4.899
  34.540	        31	    1200	     5.568
  34.560	        27	    1200	     5.196
  34.580	        30	    1200	     5.477
  34.600	        25	    1200	     5.000
  34.620	        30	    1200	     5.477
  34.640	        32	    1200	     5.657
  34.660	        32	    1200	     5.657
  34.680	        26	    1200	     5.099
  34.700	        28	    1200	     5.292
  34.720	        31	    1200	     5.568
  34.740	        44	    1200	     6.633
  34.760	        25	    1200	     5.000
  34.780	        21	    1200	     4.583
  34.800	        21	    1200	     4.583
  34.820	        31	    1200	     5.568
  34.840	        25	    1200	     5.000
  34.860	        38	    1200	     6.164
  34.880	        34	    1200	     5.831
  34.900	        20	    1200	     4.472
  34.920	        26	    1200	     5.099
  34.940	        20	    1200	     4.472
  34.960	        32	    1200	     5.657
  34.980	        25	    1200	     5.000
  35.000	        23	    1200	     4.796
  35.020	        20	    1200	     4.472
  35.040	        29	    1200	     5.385
  35.060	        23	    1200	     4.796
  35.080	        29	    1200	     5.385
  35.100	        23	    1200	     4.796
  35.120	        30	    1200	     5.477
  35.140	        20	    1200	     4.472
  35.160	        26	    1200	     5.099
  35.180	        30	    1200	     5.477
  35.200	        22	    1200	     4.690
  35.220	        24	    1200	     4.899
  35.240	        18	    1200	     4.243
  35.260	        27	    1200	     5.196
  35.280	        23	    1200	     4.796
  35.300	        27	    1200	     5.196
  35.320	        37	    1200	     6.083
  35.340	        22	    1200	     4.690
  35.360	        21	    1200	     4.583
  35.380	        36	    1200	     6.000
  35.400	        21	    1200	     4.583
  35.420	        21	    1200	     4.583
  35.440	        23	    1200	     4.796
  35.460	        25	    1200	     5.000
  35.480	        26	    1200	     5.099
  35.500	        24	    1200	     4.899
  35.520	        24	    1200	     4.899
  35.540	        34	    1200	     5.831
  35.560	        18	    1200	     4.243
  35.580	        17	    1200	     4.123
  35.600	        27	    1200	     5.196
  35.620	        24	    1200	     4.899
  35.640	        17	    1200	     4.123
  35.660	        31	    1200	     5.568
  35.680	        33	    1200	     5.745
  35.700	        29	    1200	     5.385
  35.720	        30	    1200	     5.477
  35.740	        28	    1200	     5.292
  35.760	        32	    1200	     5.657
  35.780	        19	    1200	     4.359
  35.800	        33	    1200	     5.745
  35.820	        27	    1200	     5.196
  35.840	        26	    1200	     5.099
  35.860	        30	    1200	     5.477
  35.880	        18	    1200	     4.243
  35.900	        22	    1200	     4.690
  35.920	        20	    1200	     4.472
  35.940	        29	    1200	     5.385
  35.960	        23	    1200	     4.796
  35.980	        27	    1200	     5.196
  36.000	        29	    1200	     5.385
  36.020	        25	    1200	     5.000
  36.040	        18	    1200	     4.243
  36.060	        21	    1200	     4.583
  36.080	        22	    1200	     4.690
  36.100	        24	    1200	     4.899
  36.120	        31	    1200	     5.568
  36.140	        23	    1200	     4.796
  36.160	        22	    1200	     4.690
  36.180	        25	    1200	     5.000
  36.200	        29	    1200	     5.385
  36.220	        21	    1200	     4.583
  36.240	        39	    1200	     6.245
  36.260	        23	    1200	     4.796
  36.280	        24	    1200	     4.899
  36.300	        16	    1200	     4.000
  36.320	        26	    1200	     5.099
  36.340	        23	    1200	     4.796
  36.360	        27	    1200	     5.196
  36.380	        23	    1200	     4.796
  36.400	        24	    1200	     4.899
  36.420	        32	    1200	     5.657
  36.440	        16	    1200	     4.000
  36.460	        20	    1200	     4.472
  36.480	        28	    1200	     5.292
  36.500	        29	    1200	     5.385
  36.520	        26	    1200	     5.099
  36.540	        21	    1200	     4.583
  36.560	        16	    1200	     4.000
  36.580	        26	    1200	     5.099
  36.600	        19	    1200	     4.359
  36.620	        25	    1200	     5.000
  36.640	        23	    1200	     4.796
  36.660	        24	    1200	     4.899
  36.680	        30	    1200	     5.477
  36.700	        27	    1200	     5.196
  36.720	        27	    1200	     5.196
  36.740	        23	    1200	     4.796
  36.760	        26	    1200	     5.099
  36.780	        27	    1200	     5.196
  36.800	        17	    1200	     4.123
  36.820	        18	    1200	     4.243
  36.840	        25	    1200	     5.000
  36.860	        27	    1200	     5.196
  36.880	        21	    1200	     4.583
  36.900	        24	    1200	     4.899
  36.920	        25	    1200	     5.000
  36.940	        25	    1200	     5.000
  36.960	        31	    1200	     5.568
  36.980	        21	    1200	     4.583
  37.000	        28	    1200	     5.292
  37.020	        32	    1200	     5.657
  37.040	        20	    1200	     4.472
  37.060	        23	    1200	     4.796
  37.080	        24	    1200	     4.899
  37.100	        21	    1200	     4.583
  37.120	        24	    1200	     4.899
  37.140	        19	    1200	     4.359
  37.160	        33	    1200	     5.745
  37.180	        26	    1200	     5.099
  37.200	        27	    1200	     5.196
  37.220	        28	    1200	     5.292
  37.240	        22	    1200	     4.690
  37.260	        15	    1200	     3.873
  37.280	        17	    1200	     4.123
  37.300	        26	    1200	     5.099
  37.320	        24	    1200	     4.899
  37.340	        23	    1200	     4.796
  37.360	        23	    1200	     4.796
  37.380	        21	    1200	     4.583
  37.400	        26	    1200	     5.099
  37.420	        20	    1200	     4.472
  37.440	        16	    1200	     4.000
  37.460	        12	    1200	     3.464
  37.480	        15	    1200	     3.873
  37.500	        18	    1200	     4.243
  37.520	        23	    1200	     4.796
  37.540	        27	    1200	     5.196
  37.560	        24	    1200	     4.899
  37.580	        19	    1200	     4.359
  37.600	        40	    1200	     6.325
  37.620	        16	    1200	     4.000
  37.640	        24	    1200	     4.899
  37.660	        15	    1200	     3.873
  37.680	        19	    1200	     4.359
  37.700	        25	    1200	     5.000
  37.720	        22	    1200	     4.690
  37.740	        22	    1200	     4.690
  37.760	        27	    1200	     5.196
  37.780	        25	    1200	     5.000
  37.800	        23	    1200	     4.796
  37.820	        19	    1200	     4.359
  37.840	        19	    1200	     4.359
  37.860	        33	    1200	     5.745
  37.880	        20	    1200	     4.472
  37.900	        26	    1200	     5.099
  37.920	        17	    1200	     4.123
  37.940	        28	    1200	     5.292
  37.960	        25	    1200	     5.000
  37.980	        19	    1200	     4.359
  38.000	        23	    1200	     4.796
  38.020	        32	    1200	     5.657
  38.040	        25	    1200	     5.000
  38.060	        22	    1200	     4.690
  38.080	        22	    1200	     4.690
  38.100	        22	    1200	     4.690
  38.120	        25	    1200	     5.000
  38.140	        29	    1200	     5.385
  38.160	        22	    1200	     4.690
  38.180	        18	    1200	     4.243
  38.200	        28	    1200	     5.292
  38.220	        26	    1200	     5.099
  38.240	        17	    1200	     4.123
  38.260	        28	    1200	     5.292
  38.280	        30	    1200	     5.477
  38.300	        26	    1200	     5.099
  38.320	        17	    1200	     4.123
  38.340	        17	    1200	     4.123
  38.360	        26	    1200	     5.099
  38.380	        23	    1200	     4.796
  38.400	        29	    1200	     5.385
  38.420	        25	    1200	     5.000
  38.440	        11	    1200	     3.317
  38.460	        30	    1200	     5.477
  38.480	        27	    1200	     5.196
  38.500	        33	    1200	     5.745
  38.520	        22	    1200	     4.690
  38.540	        31	    1200	     5.568
  38.560	        22	    1200	     4.690
  38.580	        18	    1200	     4.243
  38.600	        24	    1200	     4.899
  38.620	        24	    1200	     4.899
  38.640	        19	    1200	     4.359
  38.660	        38	    1200	     6.164
  38.680	        29	    1200	     5.385
  38.700	        26	    1200	     5.099
  38.720	        19	    1200	     4.359
  38.740	        25	    1200	     5.000
  38.760	        34	    1200	     5.831
  38.780	        27	    1200	     5.196
  38.800	        20	    1200	     4.472
  38.820	        27	    1200	     5.196
  38.840	        29	    1200	     5.385
  38.860	        23	    1200	     4.796
  38.880	        30	    1200	     5.477
  38.900	        23	    1200	     4.796
  38.920	        23	    1200	     4.796
  38.940	        27	    1200	     5.196
  38.960	        23	    1200	     4.796
  38.980	        32	    1200	     5.657
  39.000	        30	    1200	     5.477
  39.020	        24	    1200	     4.899
  39.040	        25	    1200	     5.000
  39.060	        28	    1200	     5.292
  39.080	        31	    1200	     5.568
  39.100	        34	    1200	     5.831
  39.120	        37	    1200	     6.083
  39.140	        33	    1200	     5.745
  39.160	        38	    1200	     6.164
  39.180	        31	    1200	     5.568
  39.200	        48	    1200	     6.928
  39.220	        40	    1200	     6.325
  39.240	        36	    1200	     6.000
  39.260	        40	    1200	     6.325
  39.280	        37	    1200	     6.083
  39.300	        43	    1200	     6.557
  39.320	        43	    1200	     6.557
  39.340	        34	    1200	     5.831
  39.360	        50	    1200	     7.071
  39.380	        37	    1200	     6.083
  39.400	        46	    1200	     6.782
  39.420	        52	    1200	     7.211
  39.440	        56	    1200	     7.483
  39.460	        70	    1200	     8.367
  39.480	        72	    1200	     8.485
  39.500	       105	    1200	    10.247
  39.520	       119	    1200	    10.909
  39.540	       157	    1200	    12.530
  39.560	       148	    1200	    12.166
  39.580	       226	    1200	    15.033
  39.600	       280	    1200	    16.733
  39.620	       315	    1200	    17.748
  39.640	       333	    1200	    18.248
  39.660	       386	    1200	    19.647
  39.680	       435	    1200	    20.857
  39.700	       414	    1200	    20.347
  39.720	       397	    1200	    19.925
  39.740	       392	    1200	    19.799
  39.760	       364	    1200	    19.079
  39.780	       310	    1200	    17.607
  39.800	       295	    1200	    17.176
  39.820	       265	    1200	    16.279
  39.840	       204	    1200	    14.283
  39.860	       166	    1200	    12.884
  39.880	       142	    1200	    11.916
  39.900	       110	    1200	    10.488
  39.920	        93	    1200	     9.644
  39.940	        81	    1200	     9.000
  39.960	        71	    1200	     8.426
  39.980	        53	    1200	     7.280
  40.000	        46	    1200	     6.782
  40.020	        40	    1200	     6.325
  40.040	        46	    1200	     6.782
  40.060	        34	    1200	     5.831
  40.080	        39	    1200	     6.245
  40.100	        27	    1200	     5.196
  40.120	        36	    1200	     6.000
  40.140	        27	    1200	     5.196
  40.160	        33	    1200	     5.745
  40.180	        29	    1200	     5.385
  40.200	        32	    1200	     5.657
  40.220	        38	    1200	     6.164
  40.240	        20	    1200	     4.472
  40.260	        30	    1200	     5.477
  40.280	        28	    1200	     5.292
  40.300	        25	    1200	     5.000
  40.320	        32	    1200	     5.657
  40.340	        22	    1200	     4.690
  40.360	        22	    1200	     4.690
  40.380	        23	    1200	     4.796
  40.400	        26	    1200	     5.099
  40.420	        22	    1200	     4.690
  40.440	        28	    1200	     5.292
  40.460	        26	    1200	     5.099
  40.480	        24	    1200	     4.899
  40.500	        20	    1200	     4.472
  40.520	        27	    1200	     5.196
  40.540	        28	    1200	     5.292
  40.560	        17	    1200	     4.123
  40.580	        20	    1200	     4.472
  40.600	        21	    1200	     4.583
  40.620	        20	    1200	     4.472
  40.640	        29	    1200	     5.385
  40.660	        21	    1200	     4.583
  40.680	        25	    1200	     5.000
  40.700	        21	    1200	     4.583
  40.720	        29	    1200	     5.385
  40.740	        28	    1200	     5.292
  40.760	        26	    1200	     5.099
  40.780	        24	    1200	     4.899
  40.800	        33	    1200	     5.745
  40.820	        17	    1200	     4.123
  40.840	        27	    1200	     5.196
  40.860	        27	    1200	     5.196
  40.880	        30	    1200	     5.477
  40.900	        41	    1200	     6.403
  40.920	        24	    1200	     4.899
  40.940	        23	    1200	     4.796
  40.960	        24	    1200	     4.899
  40.980	        29	    1200	     5.385
  41.000	        28	    1200	     5.292
  41.020	        30	    1200	     5.477
  41.040	        32	    1200	     5.657
  41.060	        39	    1200	     6.245
  41.080	        19	    1200	     4.359
  41.100	        32	    1200	     5.657
  41.120	        41	    1200	     6.403
  41.140	        46	    1200	     6.782
  41.160	        39	    1200	     6.245
  41.180	        31	    1200	     5.568
  41.200	        36	    1200	     6.000
  41.220	        49	    1200	     7.000
  41.240	        43	    1200	     6.557
  41.260	        36	    1200	     6.000
  41.280	        35	    1200	     5.916
  41.300	        28	    1200	     5.292
  41.320	        30	    1200	     5.477
  41.340	        43	    1200	     6.557
  41.360	        34	    1200	     5.831
  41.380	        33	    1200	     5.745
  41.400	        40	    1200	     6.325
  41.420	        23	    1200	     4.796
  41.440	        36	    1200	     6.000
  41.460	        31	    1200	     5.568
  41.480	        28	    1200	     5.292
  41.500	        21	    1200	     4.583
  41.520	        21	    1200	     4.583
  41.540	        31	    1200	     5.568
  41.560	        22	    1200	     4.690
  41.580	        30	    1200	     5.477
  41.600	        23	    1200	     4.796
  41.620	        23	    1200	     4.796
  41.640	        31	    1200	     5.568
  41.660	        21	    1200	     4.583
  41.680	        26	    1200	     5.099
  41.700	        15	    1200	     3.873
  41.720	        31	    1200	     5.568
  41.740	        25	    1200	     5.000
  41.760	        20	    1200	     4.472
  41.780	        18	    1200	     4.243
  41.800	        23	    1200	     4.796
  41.820	        18	    1200	     4.243
  41.840	        28	    1200	     5.292
  41.860	        18	    1200	     4.243
  41.880	        12	    1200	     3.464
  41.900	        23	    1200	     4.796
  41.920	        15	    1200	     3.873
  41.940	        25	    1200	     5.000
  41.960	        17	    1200	     4.123
  41.980	        28	    1200	     5.292
  42.000	        12	    1200	     3.464
  42.020	        16	    1200	     4.000
  42.040	        19	    1200	     4.359
  42.060	        19	    1200	     4.359
  42.080	        20	    1200	     4.472
  42.100	        17	    1200	     4.123
  42.120	        13	    1200	     3.606
  42.140	        18	    1200	     4.243
  42.160	        20	    1200	     4.472
  42.180	        27	    1200	     5.196
  42.200	        22	    1200	     4.690
  42.220	        14	    1200	     3.742
  42.240	        20	    1200	     4.472
  42.260	        20	    1200	     4.472
  42.280	        20	    1200	     4.472
  42.300	        26	    1200	     5.099
  42.320	        22	    1200	     4.690
  42.340	        18	    1200	     4.243
  42.360	        19	    1200	     4.359
  42.380	        18	    1200	     4.243
  42.400	        29	    1200	     5.385
  42.420	        25	    1200	     5.000
  42.440	        21	    1200	     4.583
  42.460	        20	    1200	     4.472
  42.480	        17	    1200	     4.123
  42.500	        15	    1200	     3.873
  42.520	        21	    1200	     4.583
  42.540	        18	    1200	     4.243
  42.560	        15	    1200	     3.873
  42.580	        20	    1200	     4.472
  42.600	        28	    1200	     5.292
  42.620	        17	    1200	     4.123
  42.640	        22	    1200	     4.690
  42.660	        22	    1200	     4.690
  42.680	        28	    1200	     5.292
  42.700	        24	    1200	     4.899
  42.720	        23	    1200	     4.796
  42.740	        19	    1200	     4.359
  42.760	        17	    1200	     4.123
  42.780	        27	    1200	     5.196
  42.800	        19	    1200	     4.359
  42.820	        23	    1200	     4.796
  42.840	        18	    1200	     4.243
  42.860	        22	    1200	     4.690
  42.880	        25	    1200	     5.000
  42.900	        12	    1200	     3.464
  42.920	        25	    1200	     5.000
  42.940	        18	    1200	     4.243
  42.960	        19	    1200	     4.359
  42.980	        17	    1200	     4.123
  43.000	        12	    1200	     3.464
  43.020	        16	    1200	     4.000
  43.040	        22	    1200	     4.690
  43.060	        18	    1200	     4.243
  43.080	        17	    1200	     4.123
  43.100	        14	    1200	     3.742
  43.120	        13	    1200	     3.606
  43.140	        28	    1200	     5.292
  43.160	        16	    1200	     4.000
  43.180	        17	    1200	     4.123
  43.200	        21	    1200	     4.583
  43.220	        10	    1200	     3.162
  43.240	        12	    1200	     3.464
  43.260	        19	    1200	     4.359
  43.280	        22	    1200	     4.690
  43.300	        15	    1200	     3.873
  43.320	        16	    1200	     4.000
  43.340	        20	    1200	     4.472
  43.360	        18	    1200	     4.243
  43.380	        23	    1200	     4.796
  43.400	        11	    1200	     3.317
  43.420	        19	    1200	     4.359
  43.440	        20	    1200	     4.472
  43.460	        20	    1200	     4.472
  43.480	        20	    1200	     4.472
  43.500	        14	    1200	     3.742
  43.520	        18	    1200	     4.243
  43.540	        22	    1200	     4.690
  43.560	        15	    1200	     3.873
  43.580	        16	    1200	     4.000
  43.600	        34	    1200	     5.831
  43.620	        21	    1200	     4.583
  43.640	        20	    1200	     4.472
  43.660	        23	    1200	     4.796
  43.680	        21	    1200	     4.583
  43.700	        26	    1200	     5.099
  43.720	        21	    1200	     4.583
  43.740	        20	    1200	     4.472
  43.760	        21	    1200	     4.583
  43.780	        21	    1200	     4.583
  43.800	        15	    1200	     3.873
  43.820	        25	    1200	     5.000
  43.840	        14	    1200	     3.742
  43.860	        21	    1200	     4.583
  43.880	        19	    1200	     4.359
  43.900	        25	    1200	     5.000
  43.920	        21	    1200	     4.583
  43.940	        20	    1200	     4.472
  43.960	        17	    1200	     4.123
  43.980	        24	    1200	     4.899
  44.000	        23	    1200	     4.796
  44.020	        20	    1200	     4.472
  44.040	        12	    1200	     3.464
  44.060	        22	    1200	     4.690
  44.080	        16	    1200	     4.000
  44.100	        19	    1200	     4.359
  44.120	        24	    1200	     4.899
  44.140	        25	    1200	     5.000
  44.160	        23	    1200	     4.796
  44.180	        30	    1200	     5.477
  44.200	        22	    1200	     4.690
  44.220	        27	    1200	     5.196
  44.240	        24	    1200	     4.899
  44.260	        17	    1200	     4.123
  44.280	        23	    1200	     4.796
  44.300	        32	    1200	     5.657
  44.320	        22	    1200	     4.690
  44.340	        28	    1200	     5.292
  44.360	        27	    1200	     5.196
  44.380	        28	    1200	     5.292
  44.400	        27	    1200	     5.196
  44.420	        24	    1200	     4.899
  44.440	        18	    1200	     4.243
  44.460	        28	    1200	     5.292
  44.480	        40	    1200	     6.325
  44.500	        24	    1200	     4.899
  44.520	        25	    1200	     5.000
  44.540	        40	    1200	     6.325
  44.560	        29	    1200	     5.385
  44.580	        27	    1200	     5.196
  44.600	        30	    1200	     5.477
  44.620	        32	    1200	     5.657
  44.640	        27	    1200	     5.196
  44.660	        16	    1200	     4.000
  44.680	        25	    1200	     5.000
  44.700	        15	    1200	     3.873
  44.720	        24	    1200	     4.899
  44.740	        21	    1200	     4.583
  44.760	        28	    1200	     5.292
  44.780	        19	    1200	     4.359
  44.800	        24	    1200	     4.899
  44.820	        21	    1200	     4.583
  44.840	        21	    1200	     4.583
  44.860	        19	    1200	     4.359
  44.880	        15	    1200	     3.873
  44.900	        32	    1200	     5.657
  44.920	        11	    1200	     3.317
  44.940	        22	    1200	     4.690
  44.960	        17	    1200	     4.123
  44.980	        23	    1200	     4.796
  45.000	        18	    1200	     4.243
  45.020	        20	    1200	     4.472
  45.040	        25	    1200	     5.000
  45.060	        27	    1200	     5.196
  45.080	        20	    1200	     4.472
  45.100	        16	    1200	     4.000
  45.120	        32	    1200	     5.657
  45.140	        26	    1200	     5.099
  45.160	        19	    1200	     4.359
  45.180	        26	    1200	     5.099
  45.200	        22	    1200	     4.690
  45.220	        20	    1200	     4.472
  45.240	        26	    1200	     5.099
  45.260	        18	    1200	     4.243
  45.280	        19	    1200	     4.359
  45.300	        24	    1200	     4.899
  45.320	        29	    1200	     5.385
  45.340	        29	    1200	     5.385
  45.360	        30	    1200	     5.477
  45.380	        23	    1200	     4.796
  45.400	        19	    1200	     4.359
  45.420	        33	    1200	     5.745
  45.440	        33	    1200	     5.745
  45.460	        33	    1200	     5.745
  45.480	        22	    1200	     4.690
  45.500	        29	    1200	     5.385
  45.520	        36	    1200	     6.000
  45.540	        29	    1200	     5.385
  45.560	        28	    1200	     5.292
  45.580	        40	    1200	     6.325
  45.600	        42	    1200	     6.481
  45.620	        41	    1200	     6.403
  45.640	        41	    1200	     6.403
  45.660	        50	    1200	     7.071
  45.680	        61	    1200	     7.810
  45.700	        62	    1200	     7.874
  45.720	        66	    1200	     8.124
  45.740	        86	    1200	     9.274
  45.760	        71	    1200	     8.426
  45.780	        91	    1200	     9.539
  45.800	        95	    1200	     9.747
  45.820	       101	    1200	    10.050
  45.840	       115	    1200	    10.724
  45.860	       112	    1200	    10.583
  45.880	       124	    1200	    11.136
  45.900	       142	    1200	    11.916
  45.920	       147	    1200	    12.124
  45.940	       175	    1200	    13.229
  45.960	       211	    1200	    14.526
  45.980	       242	    1200	    15.556
  46.000	       264	    1200	    16.248
  46.020	       314	    1200	    17.720
  46.040	       388	    1200	    19.698
  46.060	       426	    1200	    20.640
  46.080	       584	    1200	    24.166
  46.100	       630	    1200	    25.100
  46.120	       745	    1200	    27.295
  46.140	       856	    1200	    29.257
  46.160	       882	    1200	    29.698
  46.180	       939	    1200	    30.643
  46.200	       977	    1200	    31.257
  46.220	       985	    1200	    31.385
  46.240	       959	    1200	    30.968
  46.260	       828	    1200	    28.775
  46.280	       832	    1200	    28.844
  46.300	       684	    1200	    26.153
  46.320	       662	    1200	    25.729
  46.340	       592	    1200	    24.331
  46.360	       464	    1200	    21.541
  46.380	       433	    1200	    20.809
  46.400	       332	    1200	    18.221
  46.420	       269	    1200	    16.401
  46.440	       228	    1200	    15.100
  46.460	       194	    1200	    13.928
  46.480	       144	    1200	    12.000
  46.500	       122	    1200	    11.045
  46.520	       120	    1200	    10.954
  46.540	       100	    1200	    10.000
  46.560	       104	    1200	    10.198
  46.580	        79	    1200	     8.888
  46.600	        76	    1200	     8.718
  46.620	        64	    1200	     8.000
  46.640	        47	    1200	     6.856
  46.660	        46	    1200	     6.782
  46.680	        41	    1200	     6.403
  46.700	        40	    1200	     6.325
  46.720	        39	    1200	     6.245
  46.740	        36	    1200	     6.000
  46.760	        36	    1200	     6.000
  46.780	        48	    1200	     6.928
  46.800	        33	    1200	     5.745
  46.820	        32	    1200	     5.657
  46.840	        29	    1200	     5.385
  46.860	        35	    1200	     5.916
  46.880	        27	    1200	     5.196
  46.900	        33	    1200	     5.745
  46.920	        32	    1200	     5.657
  46.940	        25	    1200	     5.000
  46.960	        33	    1200	     5.745
  46.980	        30	    1200	     5.477
  47.000	        30	    1200	     5.477
  47.020	        35	    1200	     5.916
  47.040	        22	    1200	     4.690
  47.060	        25	    1200	     5.000
  47.080	        36	    1200	     6.000
  47.100	        30	    1200	     5.477
  47.120	        29	    1200	     5.385
  47.140	        21	    1200	     4.583
  47.160	        28	    1200	     5.292
  47.180	        27	    1200	     5.196
  47.200	        29	    1200	     5.385
  47.220	        29	    1200	     5.385
  47.240	        22	    1200	     4.690
  47.260	        28	    1200	     5.292
  47.280	        28	    1200	     5.292
  47.300	        26	    1200	     5.099
  47.320	        28	    1200	     5.292
  47.340	        27	    1200	     5.196
  47.360	        29	    1200	     5.385
  47.380	        27	    1200	     5.196
  47.400	        21	    1200	     4.583
  47.420	        21	    1200	     4.583
  47.440	        23	    1200	     4.796
  47.460	        19	    1200	     4.359
  47.480	        24	    1200	     4.899
  47.500	        22	    1200	     4.690
  47.520	        15	    1200	     3.873
  47.540	        27	    1200	     5.196
  47.560	        28	    1200	     5.292
  47.580	        25	    1200	     5.000
  47.600	        25	    1200	     5.000
  47.620	        27	    1200	     5.196
  47.640	        23	    1200	     4.796
  47.660	        23	    1200	     4.796
  47.680	        27	    1200	     5.196
  47.700	        29	    1200	     5.385
  47.720	        32	    1200	     5.657
  47.740	        27	    1200	     5.196
  47.760	        31	    1200	     5.568
  47.780	        27	    1200	     5.196
  47.800	        31	    1200	     5.568
  47.820	        28	    1200	     5.292
  47.840	        17	    1200	     4.123
  47.860	        29	    1200	     5.385
  47.880	        13	    1200	     3.606
  47.900	        24	    1200	     4.899
  47.920	        24	    1200	     4.899
  47.940	        22	    1200	     4.690
  47.960	        18	    1200	     4.243
  47.980	        20	    1200	     4.472
  48.000	        15	    1200	     3.873
  48.020	        16	    1200	     4.000
  48.040	        25	    1200	     5.000
  48.060	        16	    1200	     4.000
  48.080	        19	    1200	     4.359
  48.100	        18	    1200	     4.243
  48.120	        27	    1200	     5.196
  48.140	        16	    1200	     4.000
  48.160	        16	    1200	     4.000
  48.180	        19	    1200	     4.359
  48.200	        19	    1200	     4.359
  48.220	        20	    1200	     4.472
  48.240	        20	    1200	     4.472
  48.260	        21	    1200	     4.583
  48.280	        16	    1200	     4.000
  48.300	        27	    1200	     5.196
  48.320	        14	    1200	     3.742
  48.340	        23	    1200	     4.796
  48.360	        19	    1200	     4.359
  48.380	        18	    1200	     4.243
  48.400	        18	    1200	     4.243
  48.420	        19	    1200	     4.359
  48.440	        14	    1200	     3.742
  48.460	        14	    1200	     3.742
  48.480	        20	    1200	     4.472
  48.500	        16	    1200	     4.000
  48.520	        16	    1200	     4.000
  48.540	        20	    1200	     4.472
  48.560	        19	    1200	     4.359
  48.580	         9	    1200	     3.000
  48.600	        15	    1200	     3.873
  48.620	        16	    1200	     4.000
  48.640	        19	    1200	     4.359
  48.660	        23	    1200	     4.796
  48.680	        13	    1200	     3.606
  48.700	        16	    1200	     4.000
  48.720	        18	    1200	     4.243
  48.740	        15	    1200	     3.873
  48.760	        17	    1200	     4.123
  48.780	        17	    1200	     4.123
  48.800	        19	    1200	     4.359
  48.820	        17	    1200	     4.123
  48.840	        23	    1200	     4.796
  48.860	        16	    1200	     4.000
  48.880	        12	    1200	     3.464
  48.900	        15	    1200	     3.873
  48.920	        25	    1200	     5.000
  48.940	        15	    1200	     3.873
  48.960	        25	    1200	     5.000
  48.980	        20	    1200	     4.472
  49.000	        30	    1200	     5.477
  49.020	        12	    1200	     3.464
  49.040	        18	    1200	     4.243
  49.060	        29	    1200	     5.385
  49.080	        15	    1200	     3.873
  49.100	        13	    1200	     3.606
  49.120	        19	    1200	     4.359
  49.140	         8	    1200	     2.828
  49.160	        16	    1200	     4.000
  49.180	        23	    1200	     4.796
  49.200	        20	    1200	     4.472
  49.220	        12	    1200	     3.464
  49.240	        16	    1200	     4.000
  49.260	        18	    1200	     4.243
  49.280	        18	    1200	     4.243
  49.300	        21	    1200	     4.583
  49.320	        17	    1200	     4.123
  49.340	        19	    1200	     4.359
  49.360	        20	    1200	     4.472
  49.380	        20	    1200	     4.472
  49.400	        20	    1200	     4.472
  49.420	        16	    1200	     4.000
  49.440	        17	    1200	     4.123
  49.460	        13	    1200	     3.606
  49.480	        14	    1200	     3.742
  49.500	        21	    1200	     4.583
  49.520	        22	    1200	     4.690
  49.540	        17	    1200	     4.123
  49.560	         9	    1200	     3.000
  49.580	        15	    1200	     3.873
  49.600	        14	    1200	     3.742
  49.620	        14	    1200	     3.742
  49.640	        15	    1200	     3.873
  49.660	        16	    1200	     4.000
  49.680	        22	    1200	     4.690
  49.700	         9	    1200	     3.000
  49.720	        19	    1200	     4.359
  49.740	        16	    1200	     4.000
  49.760	        19	    1200	     4.359
  49.780	        15	    1200	     3.873
  49.800	        12	    1200	     3.464
  49.820	        12	    1200	     3.464
  49.840	        12	    1200	     3.464
  49.860	        19	    1200	     4.359
  49.880	        10	    1200	     3.162
  49.900	        16	    1200	     4.000
  49.920	        16	    1200	     4.000
  49.940	        17	    1200	     4.123
  49.960	        16	    1200	     4.000
  49.980	        14	    1200	     3.742
  50.000	        13	    1200	     3.606
  50.020	        19	    1200	     4.359
  50.040	        20	    1200	     4.472
  50.060	        15	    1200	     3.873
  50.080	        18	    1200	     4.243
  50.100	        14	    1200	     3.742
  50.120	        17	    1200	     4.123
  50.140	        11	    1200	     3.317
  50.160	        25	    1200	     5.000
  50.180	        16	    1200	     4.000
  50.200	        16	    1200	     4.000
  50.220	        12	    1200	     3.464
  50.240	        18	    1200	     4.243
  50.260	        15	    1200	     3.873
  50.280	        16	    1200	     4.000
  50.300	        15	    1200	     3.873
  50.320	        17	    1200	     4.123
  50.340	        19	    1200	     4.359
  50.360	        12	    1200	     3.464
  50.380	        17	    1200	     4.123
  50.400	        16	    1200	     4.000
  50.420	        14	    1200	     3.742
  50.440	        13	    1200	     3.606
  50.460	        13	    1200	     3.606
  50.480	        16	    1200	     4.000
  50.500	        16	    1200	     4.000
  50.520	        12	    1200	     3.464
  50.540	        10	    1200	     3.162
  50.560	        15	    1200	     3.873
  50.580	        17	    1200	     4.123
  50.600	        17	    1200	     4.123
  50.620	        13	    1200	     3.606
  50.640	        20	    1200	     4.472
  50.660	        19	    1200	     4.359
  50.680	        19	    1200	     4.359
  50.700	        19	    1200	     4.359
  50.720	        17	    1200	     4.123
  50.740	        17	    1200	     4.123
  50.760	        14	    1200	     3.742
  50.780	        12	    1200	     3.464
  50.800	         9	    1200	     3.000
  50.820	        14	    1200	     3.742
  50.840	        11	    1200	     3.317
  50.860	        15	    1200	     3.873
  50.880	        13	    1200	     3.606
  50.900	        16	    1200	     4.000
  50.920	        19	    1200	     4.359
  50.940	        18	    1200	     4.243
  50.960	        19	    1200	     4.359
  50.980	        18	    1200	     4.243
  51.000	        14	    1200	     3.742
  51.020	        13	    1200	     3.606
  51.040	        11	    1200	     3.317
  51.060	        16	    1200	     4.000
  51.080	        10	    1200	     3.162
  51.100	        14	    1200	     3.742
  51.120	        11	    1200	     3.317
  51.140	        15	    1200	     3.873
  51.160	        16	    1200	     4.000
  51.180	        16	    1200	     4.000
  51.200	        19	    1200	     4.359
  51.220	        16	    1200	     4.000
  51.240	        14	    1200	     3.742
  51.260	        20	    1200	     4.472
  51.280	        11	    1200	     3.317
  51.300	        23	    1200	     4.796
  51.320	        15	    1200	     3.873
  51.340	        20	    1200	     4.472
  51.360	        11	    1200	     3.317
  51.380	        15	    1200	     3.873
  51.400	        16	    1200	     4.000
  51.420	        19	    1200	     4.359
  51.440	        21	    1200	     4.583
  51.460	        22	    1200	     4.690
  51.480	        15	    1200	     3.873
  51.500	        20	    1200	     4.472
  51.520	        20	    1200	     4.472
  51.540	        16	    1200	     4.000
  51.560	        18	    1200	     4.243
  51.580	        19	    1200	     4.359
  51.600	        17	    1200	     4.123
  51.620	        24	    1200	     4.899
  51.640	        20	    1200	     4.472
  51.660	        20	    1200	     4.472
  51.680	        18	    1200	     4.243
  51.700	        22	    1200	     4.690
  51.720	        19	    1200	     4.359
  51.740	        20	    1200	     4.472
  51.760	        18	    1200	     4.243
  51.780	        17	    1200	     4.123
  51.800	        18	    1200	     4.243
  51.820	        21	    1200	     4.583
  51.840	        27	    1200	     5.196
  51.860	        21	    1200	     4.583
  51.880	        28	    1200	     5.292
  51.900	        40	    1200	     6.325
  51.920	        42	    1200	     6.481
  51.940	        31	    1200	     5.568
  51.960	        41	    1200	     6.403
  51.980	        35	    1200	     5.916
  52.000	        53	    1200	     7.280
  52.020	        68	    1200	     8.246
  52.040	        48	    1200	     6.928
  52.060	        48	    1200	     6.928
  52.080	        66	    1200	     8.124
  52.100	        48	    1200	     6.928
  52.120	        47	    1200	     6.856
  52.140	        44	    1200	     6.633
  52.160	        46	    1200	     6.782
  52.180	        37	    1200	     6.083
  52.200	        44	    1200	     6.633
  52.220	        38	    1200	     6.164
  52.240	        42	    1200	     6.481
  52.260	        41	    1200	     6.403
  52.280	        34	    1200	     5.831
  52.300	        36	    1200	     6.000
  52.320	        22	    1200	     4.690
  52.340	        26	    1200	     5.099
  52.360	        15	    1200	     3.873
  52.380	        20	    1200	     4.472
  52.400	        18	    1200	     4.243
  52.420	        19	    1200	     4.359
  52.440	        11	    1200	     3.317
  52.460	        19	    1200	     4.359
  52.480	        12	    1200	     3.464
  52.500	        19	    1200	     4.359
  52.520	        13	    1200	     3.606
  52.540	        15	    1200	     3.873
  52.560	        13	    1200	     3.606
  52.580	        14	    1200	     3.742
  52.600	        18	    1200	     4.243
  52.620	        19	    1200	     4.359
  52.640	        15	    1200	     3.873
  52.660	        10	    1200	     3.162
  52.680	        13	    1200	     3.606
  52.700	        20	    1200	     4.472
  52.720	        11	    1200	     3.317
  52.740	        21	    1200	     4.583
  52.760	        19	    1200	     4.359
  52.780	         7	    1200	     2.646
  52.800	        16	    1200	     4.000
  52.820	        14	    1200	     3.742
  52.840	        10	    1200	     3.162
  52.860	        15	    1200	     3.873
  52.880	        12	    1200	     3.464
  52.900	        17	    1200	     4.123
  52.920	        19	    1200	     4.359
  52.940	        11	    1200	     3.317
  52.960	        13	    1200	     3.606
  52.980	        17	    1200	     4.123
  53.000	        18	    1200	     4.243
  53.020	         8	    1200	     2.828
  53.040	        13	    1200	     3.606
  53.060	        12	    1200	     3.464
  53.080	        15	    1200	     3.873
  53.100	        18	    1200	     4.243
  53.120	        14	    1200	     3.742
  53.140	        16	    1200	     4.000
  53.160	        16	    1200	     4.000
  53.180	        11	    1200	     3.317
  53.200	        17	    1200	     4.123
  53.220	        16	    1200	     4.000
  53.240	        11	    1200	     3.317
  53.260	        15	    1200	     3.873
  53.280	        12	    1200	     3.464
  53.300	        16	    1200	     4.000
  53.320	        17	    1200	     4.123
  53.340	        25	    1200	     5.000
  53.360	        16	    1200	     4.000
  53.380	        25	    1200	     5.000
  53.400	        18	    1200	     4.243
  53.420	        10	    1200	     3.162
  53.440	        19	    1200	     4.359
  53.460	        13	    1200	     3.606
  53.480	        20	    1200	     4.472
  53.500	        14	    1200	     3.742
  53.520	        11	    1200	     3.317
  53.540	        13	    1200	     3.606
  53.560	        12	    1200	     3.464
  53.580	        11	    1200	     3.317
  53.600	        12	    1200	     3.464
  53.620	        12	    1200	     3.464
  53.640	        13	    1200	     3.606
  53.660	        11	    1200	     3.317
  53.680	        18	    1200	     4.243
  53.700	        20	    1200	     4.472
  53.720	        12	    1200	     3.464
  53.740	        18	    1200	     4.243
  53.760	        13	    1200	     3.606
  53.780	        12	    1200	     3.464
  53.800	        14	    1200	     3.742
  53.820	        13	    1200	     3.606
  53.840	        20	    1200	     4.472
  53.860	        19	    1200	     4.359
  53.880	        10	    1200	     3.162
  53.900	        10	    1200	     3.162
  53.920	        17	    1200	     4.123
  53.940	        20	    1200	     4.472
  53.960	        19	    1200	     4.359
  53.980	        11	    1200	     3.317
  54.000	        16	    1200	     4.000
  54.020	        10	    1200	     3.162
  54.040	        11	    1200	     3.317
  54.060	        13	    1200	     3.606
  54.080	        15	    1200	     3.873
  54.100	        12	    1200	     3.464
  54.120	        22	    1200	     4.690
  54.140	        12	    1200	     3.464
  54.160	         8	    1200	     2.828
  54.180	        16	    1200	     4.000
  54.200	        18	    1200	     4.243
  54.220	        24	    1200	     4.899
  54.240	        15	    1200	     3.873
  54.260	        20	    1200	     4.472
  54.280	        11	    1200	     3.317
  54.300	        10	    1200	     3.162
  54.320	        10	    1200	     3.162
  54.340	        14	    1200	     3.742
  54.360	        17	    1200	     4.123
  54.380	        17	    1200	     4.123
  54.400	        12	    1200	     3.464
  54.420	        10	    1200	     3.162
  54.440	         8	    1200	     2.828
  54.460	        17	    1200	     4.123
  54.480	        18	    1200	     4.243
  54.500	        17	    1200	     4.123
  54.520	        14	    1200	     3.742
  54.540	        15	    1200	     3.873
  54.560	         7	    1200	     2.646
  54.580	        11	    1200	     3.317
  54.600	        22	    1200	     4.690
  54.620	        22	    1200	     4.690
  54.640	        15	    1200	     3.873
  54.660	        21	    1200	     4.583
  54.680	        21	    1200	     4.583
  54.700	        13	    1200	     3.606
  54.720	        25	    1200	     5.000
  54.740	        17	    1200	     4.123
  54.760	        16	    1200	     4.000
  54.780	        22	    1200	     4.690
  54.800	        17	    1200	     4.123
  54.820	        14	    1200	     3.742
  54.840	        10	    1200	     3.162
  54.860	        18	    1200	     4.243
  54.880	        19	    1200	     4.359
  54.900	        19	    1200	     4.359
  54.920	        15	    1200	     3.873
  54.940	        19	    1200	     4.359
  54.960	        14	    1200	     3.742
  54.980	        21	    1200	     4.583
  55.000	        12	    1200	     3.464
  55.020	        16	    1200	     4.000
  55.040	        21	    1200	     4.583
  55.060	        16	    1200	     4.000
  55.080	        17	    1200	     4.123
  55.100	        13	    1200	     3.606
  55.120	        16	    1200	     4.000
  55.140	        18	    1200	     4.243
  55.160	         7	    1200	     2.646
  55.180	        22	    1200	     4.690
  55.200	        17	    1200	     4.123
  55.220	        14	    1200	     3.742
  55.240	        15	    1200	     3.873
  55.260	        16	    1200	     4.000
  55.280	        18	    1200	     4.243
  55.300	        19	    1200	     4.359
  55.320	        18	    1200	     4.243
  55.340	        12	    1200	     3.464
  55.360	        18	    1200	     4.243
  55.380	        28	    1200	     5.292
  55.400	        25	    1200	     5.000
  55.420	        22	    1200	     4.690
  55.440	        10	    1200	     3.162
  55.460	        17	    1200	     4.123
  55.480	        28	    1200	     5.292
  55.500	        21	    1200	     4.583
  55.520	        18	    1200	     4.243
  55.540	        25	    1200	     5.000
  55.560	        15	    1200	     3.873
  55.580	        17	    1200	     4.123
  55.600	        19	    1200	     4.359
  55.620	        17	    1200	     4.123
  55.640	        21	    1200	     4.583
  55.660	        21	    1200	     4.583
  55.680	        24	    1200	     4.899
  55.700	        14	    1200	     3.742
  55.720	        14	    1200	     3.742
  55.740	        21	    1200	     4.583
  55.760	        19	    1200	     4.359
  55.780	        17	    1200	     4.123
  55.800	        22	    1200	     4.690
  55.820	        20	    1200	     4.472
  55.840	        21	    1200	     4.583
  55.860	        25	    1200	     5.000
  55.880	        19	    1200	     4.359
  55.900	        17	    1200	     4.123
  55.920	        13	    1200	     3.606
  55.940	        19	    1200	     4.359
  55.960	        15	    1200	     3.873
  55.980	        17	    1200	     4.123
  56.000	        19	    1200	     4.359
  56.020	        25	    1200	     5.000
  56.040	        19	    1200	     4.359
  56.060	        22	    1200	     4.690
  56.080	        22	    1200	     4.690
  56.100	        17	    1200	     4.123
  56.120	        16	    1200	     4.000
  56.140	        17	    1200	     4.123
  56.160	        20	    1200	     4.472
  56.180	        20	    1200	     4.472
  56.200	        21	    1200	     4.583
  56.220	        21	    1200	     4.583
  56.240	        29	    1200	     5.385
  56.260	        27	    1200	     5.196
  56.280	        23	    1200	     4.796
  56.300	        17	    1200	     4.123
  56.320	        23	    1200	     4.796
  56.340	        30	    1200	     5.477
  56.360	        25	    1200	     5.000
  56.380	        26	    1200	     5.099
  56.400	        29	    1200	     5.385
  56.420	        19	    1200	     4.359
  56.440	        30	    1200	     5.477
  56.460	        26	    1200	     5.099
  56.480	        35	    1200	     5.916
  56.500	        29	    1200	     5.385
  56.520	        32	    1200	     5.657
  56.540	        33	    1200	     5.745
  56.560	        46	    1200	     6.782
  56.580	        24	    1200	     4.899
  56.600	        42	    1200	     6.481
  56.620	        35	    1200	     5.916
  56.640	        34	    1200	     5.831
  56.660	        42	    1200	     6.481
  56.680	        32	    1200	     5.657
  56.700	        42	    1200	     6.481
  56.720	        38	    1200	     6.164
  56.740	        51	    1200	     7.141
  56.760	        42	    1200	     6.481
  56.780	        41	    1200	     6.403
  56.800	        44	    1200	     6.633
  56.820	        50	    1200	     7.071
  56.840	        52	    1200	     7.211
  56.860	        55	    1200	     7.416
  56.880	        54	    1200	     7.348
  56.900	        46	    1200	     6.782
  56.920	        51	    1200	     7.141
  56.940	        54	    1200	     7.348
  56.960	        40	    1200	     6.325
  56.980	        57	    1200	     7.550
  57.000	        48	    1200	     6.928
  57.020	        73	    1200	     8.544
  57.040	        84	    1200	     9.165
  57.060	        70	    1200	     8.367
  57.080	        94	    1200	     9.695
  57.100	        90	    1200	     9.487
  57.120	        88	    1200	     9.381
  57.140	       105	    1200	    10.247
  57.160	       108	    1200	    10.392
  57.180	       129	    1200	    11.358
  57.200	       127	    1200	    11.269
  57.220	       154	    1200	    12.410
  57.240	       185	    1200	    13.601
  57.260	       185	    1200	    13.601
  57.280	       239	    1200	    15.460
  57.300	       269	    1200	    16.401
  57.320	       364	    1200	    19.079
  57.340	       414	    1200	    20.347
  57.360	       473	    1200	    21.749
  57.380	       580	    1200	    24.083
  57.400	       677	    1200	    26.019
  57.420	       809	    1200	    28.443
  57.440	       932	    1200	    30.529
  57.460	       960	    1200	    30.984
  57.480	      1012	    1200	    31.812
  57.500	      1033	    1200	    32.140
  57.520	      1015	    1200	    31.859
  57.540	       922	    1200	    30.364
  57.560	       872	    1200	    29.530
  57.580	       846	    1200	    29.086
  57.600	       810	    1200	    28.460
  57.620	       740	    1200	    27.203
  57.640	       693	    1200	    26.325
  57.660	       644	    1200	    25.377
  57.680	       515	    1200	    22.694
  57.700	       437	    1200	    20.905
  57.720	       403	    1200	    20.075
  57.740	       333	    1200	    18.248
  57.760	       265	    1200	    16.279
  57.780	       217	    1200	    14.731
  57.800	       176	    1200	    13.266
  57.820	       186	    1200	    13.638
  57.840	       133	    1200	    11.533
  57.860	       117	    1200	    10.817
  57.880	       105	    1200	    10.247
  57.900	        80	    1200	     8.944
  57.920	        72	    1200	     8.485
  57.940	        80	    1200	     8.944
  57.960	        77	    1200	     8.775
  57.980	        55	    1200	     7.416
  58.000	        55	    1200	     7.416
  58.020	        47	    1200	     6.856
  58.040	        49	    1200	     7.000
  58.060	        57	    1200	     7.550
  58.080	        43	    1200	     6.557
  58.100	        46	    1200	     6.782
  58.120	        24	    1200	     4.899
  58.140	        46	    1200	     6.782
  58.160	        42	    1200	     6.481
  58.180	        40	    1200	     6.325
  58.200	        29	    1200	     5.385
  58.220	        29	    1200	     5.385
  58.240	        28	    1200	     5.292
  58.260	        24	    1200	     4.899
  58.280	        21	    1200	     4.583
  58.300	        30	    1200	     5.477
  58.320	        34	    1200	     5.831
  58.340	        24	    1200	     4.899
  58.360	        30	    1200	     5.477
  58.380	        35	    1200	     5.916
  58.400	        34	    1200	     5.831
  58.420	        24	    1200	     4.899
  58.440	        29	    1200	     5.385
  58.460	        32	    1200	     5.657
  58.480	        24	    1200	     4.899
  58.500	        35	    1200	     5.916
  58.520	        25	    1200	     5.000
  58.540	        22	    1200	     4.690
  58.560	        23	    1200	     4.796
  58.580	        20	    1200	     4.472
  58.600	        34	    1200	     5.831
  58.620	        21	    1200	     4.583
  58.640	        19	    1200	     4.359
  58.660	        24	    1200	     4.899
  58.680	        25	    1200	     5.000
  58.700	        16	    1200	     4.000
  58.720	        30	    1200	     5.477
  58.740	        30	    1200	     5.477
  58.760	        28	    1200	     5.292
  58.780	        29	    1200	     5.385
  58.800	        15	    1200	     3.873
  58.820	        17	    1200	     4.123
  58.840	        18	    1200	     4.243
  58.860	        14	    1200	     3.742
  58.880	        12	    1200	     3.464
  58.900	        17	    1200	     4.123
  58.920	        24	    1200	     4.899
  58.940	        20	    1200	     4.472
  58.960	        20	    1200	     4.472
  58.980	        27	    1200	     5.196
  59.000	        32	    1200	     5.657
  59.020	        27	    1200	     5.196
  59.040	        19	    1200	     4.359
  59.060	        23	    1200	     4.796
  59.080	        19	    1200	     4.359
  59.100	        30	    1200	     5.477
  59.120	        25	    1200	     5.000
  59.140	        18	    1200	     4.243
  59.160	        20	    1200	     4.472
  59.180	        17	    1200	     4.123
  59.200	        22	    1200	     4.690
  59.220	        22	    1200	     4.690
  59.240	        21	    1200	     4.583
  59.260	        16	    1200	     4.000
  59.280	        15	    1200	     3.873
  59.300	        20	    1200	     4.472
  59.320	        19	    1200	     4.359
  59.340	        19	    1200	     4.359
  59.360	        20	    1200	     4.472
  59.380	        23	    1200	     4.796
  59.400	        19	    1200	     4.359
  59.420	        23	    1200	     4.796
  59.440	        22	    1200	     4.690
  59.460	        24	    1200	     4.899
  59.480	        23	    1200	     4.796
  59.500	        22	    1200	     4.690
  59.520	        26	    1200	     5.099
  59.540	        29	    1200	     5.385
  59.560	        23	    1200	     4.796
  59.580	        20	    1200	     4.472
  59.600	        19	    1200	     4.359
  59.620	        20	    1200	     4.472
  59.640	        14	    1200	     3.742
  59.660	        20	    1200	     4.472
  59.680	        19	    1200	     4.359
  59.700	        16	    1200	     4.000
  59.720	        14	    1200	     3.742
  59.740	        19	    1200	     4.359
  59.760	        27	    1200	     5.196
  59.780	        18	    1200	     4.243
  59.800	        19	    1200	     4.359
  59.820	        24	    1200	     4.899
  59.840	        18	    1200	     4.243
  59.860	        16	    1200	     4.000
  59.880	        23	    1200	     4.796
  59.900	        23	    1200	     4.796
  59.920	        20	    1200	     4.472
  59.940	        21	    1200	     4.583
  59.960	        17	    1200	     4.123
  59.980	        26	    1200	     5.099
  60.000	        20	    1200	     4.472
  60.020	        21	    1200	     4.583
  60.040	        23	    1200	     4.796
  60.060	        18	    1200	     4.243
  60.080	        27	    1200	     5.196
  60.100	        15	    1200	     3.873
  60.120	        24	    1200	     4.899
  60.140	        24	    1200	     4.899
  60.160	        22	    1200	     4.690
  60.180	        19	    1200	     4.359
  60.200	        21	    1200	     4.583
  60.220	        22	    1200	     4.690
  60.240	        13	    1200	     3.606
  60.260	        19	    1200	     4.359
  60.280	        16	    1200	     4.000
  60.300	        15	    1200	     3.873
  60.320	        16	    1200	     4.000
  60.340	        16	    1200	     4.000
  60.360	        15	    1200	     3.873
  60.380	        16	    1200	     4.000
  60.400	        23	    1200	     4.796
  60.420	        17	    1200	     4.123
  60.440	        18	    1200	     4.243
  60.460	        24	    1200	     4.899
  60.480	        11	    1200	     3.317
  60.500	        23	    1200	     4.796
  60.520	        19	    1200	     4.359
  60.540	        23	    1200	     4.796
  60.560	        15	    1200	     3.873
  60.580	        18	    1200	     4.243
  60.600	        12	    1200	     3.464
  60.620	        21	    1200	     4.583
  60.640	        15	    1200	     3.873
  60.660	        12	    1200	     3.464
  60.680	        13	    1200	     3.606
  60.700	        16	    1200	     4.000
  60.720	        16	    1200	     4.000
  60.740	        14	    1200	     3.742
  60.760	        22	    1200	     4.690
  60.780	        16	    1200	     4.000
  60.800	        19	    1200	     4.359
  60.820	        13	    1200	     3.606
  60.840	        20	    1200	     4.472
  60.860	        20	    1200	     4.472
  60.880	        11	    1200	     3.317
  60.900	        16	    1200	     4.000
  60.920	        22	    1200	     4.690
  60.940	        18	    1200	     4.243
  60.960	        20	    1200	     4.472
  60.980	        25	    1200	     5.000
  61.000	        22	    1200	     4.690
  61.020	        21	    1200	     4.583
  61.040	        17	    1200	     4.123
  61.060	        16	    1200	     4.000
  61.080	        18	    1200	     4.243
  61.100	        20	    1200	     4.472
  61.120	         8	    1200	     2.828
  61.140	        23	    1200	     4.796
  61.160	        20	    1200	     4.472
  61.180	        13	    1200	     3.606
  61.200	        21	    1200	     4.583
  61.220	        16	    1200	     4.000
  61.240	        21	    1200	     4.583
  61.260	        17	    1200	     4.123
  61.280	        20	    1200	     4.472
  61.300	        20	    1200	     4.472
  61.320	        21	    1200	     4.583
  61.340	        18	    1200	     4.243
  61.360	        18	    1200	     4.243
  61.380	        27	    1200	     5.196
  61.400	        23	    1200	     4.796
  61.420	        11	    1200	     3.317
  61.440	        19	    1200	     4.359
  61.460	        13	    1200	     3.606
  61.480	        15	    1200	     3.873
  61.500	        17	    1200	     4.123
  61.520	        19	    1200	     4.359
  61.540	        22	    1200	     4.690
  61.560	        20	    1200	     4.472
  61.580	        14	    1200	     3.742
  61.600	        11	    1200	     3.317
  61.620	        21	    1200	     4.583
  61.640	        14	    1200	     3.742
  61.660	        26	    1200	     5.099
  61.680	        17	    1200	     4.123
  61.700	        23	    1200	     4.796
  61.720	        19	    1200	     4.359
  61.740	        18	    1200	     4.243
  61.760	        18	    1200	     4.243
  61.780	        28	    1200	     5.292
  61.800	        15	    1200	     3.873
  61.820	        11	    1200	     3.317
  61.840	        23	    1200	     4.796
  61.860	        17	    1200	     4.123
  61.880	        22	    1200	     4.690
  61.900	        11	    1200	     3.317
  61.920	         8	    1200	     2.828
  61.940	        14	    1200	     3.742
  61.960	        17	    1200	     4.123
  61.980	        21	    1200	     4.583
  62.000	        22	    1200	     4.690
  62.020	        13	    1200	     3.606
  62.040	        15	    1200	     3.873
  62.060	        15	    1200	     3.873
  62.080	        17	    1200	     4.123
  62.100	        13	    1200	     3.606
  62.120	        16	    1200	     4.000
  62.140	        25	    1200	     5.000
  62.160	        20	    1200	     4.472
  62.180	        16	    1200	     4.000
  62.200	        26	    1200	     5.099
  62.220	        12	    1200	     3.464
  62.240	        19	    1200	     4.359
  62.260	        22	    1200	     4.690
  62.280	        25	    1200	     5.000
  62.300	        14	    1200	     3.742
  62.320	        18	    1200	     4.243
  62.340	        22	    1200	     4.690
  62.360	        25	    1200	     5.000
  62.380	        15	    1200	     3.873
  62.400	        20	    1200	     4.472
  62.420	        15	    1200	     3.873
  62.440	        19	    1200	     4.359
  62.460	        28	    1200	     5.292
  62.480	        13	    1200	     3.606
  62.500	        18	    1200	     4.243
  62.520	        12	    1200	     3.464
  62.540	        17	    1200	     4.123
  62.560	        22	    1200	     4.690
  62.580	        22	    1200	     4.690
  62.600	        14	    1200	     3.742
  62.620	        26	    1200	     5.099
  62.640	        21	    1200	     4.583
  62.660	        20	    1200	     4.472
  62.680	        24	    1200	     4.899
  62.700	        16	    1200	     4.000
  62.720	        17	    1200	     4.123
  62.740	        23	    1200	     4.796
  62.760	        13	    1200	     3.606
  62.780	        24	    1200	     4.899
  62.800	        17	    1200	     4.123
  62.820	        15	    1200	     3.873
  62.840	        25	    1200	     5.000
  62.860	        20	    1200	     4.472
  62.880	        14	    1200	     3.742
  62.900	        18	    1200	     4.243
  62.920	        25	    1200	     5.000
  62.940	        19	    1200	     4.359
  62.960	        24	    1200	     4.899
  62.980	        13	    1200	     3.606
  63.000	        27	    1200	     5.196
  63.020	        23	    1200	     4.796
  63.040	        16	    1200	     4.000
  63.060	        22	    1200	     4.690
  63.080	        22	    1200	     4.690
  63.100	        17	    1200	     4.123
  63.120	        28	    1200	     5.292
  63.140	        16	    1200	     4.000
  63.160	        23	    1200	     4.796
  63.180	        18	    1200	     4.243
  63.200	        21	    1200	     4.583
  63.220	        22	    1200	     4.690
  63.240	        22	    1200	     4.690
  63.260	        23	    1200	     4.796
  63.280	        21	    1200	     4.583
  63.300	        25	    1200	     5.000
  63.320	        20	    1200	     4.472
  63.340	        18	    1200	     4.243
  63.360	        19	    1200	     4.359
  63.380	        19	    1200	     4.359
  63.400	        22	    1200	     4.690
  63.420	        16	    1200	     4.000
  63.440	        17	    1200	     4.123
  63.460	        19	    1200	     4.359
  63.480	        19	    1200	     4.359
  63.500	        23	    1200	     4.796
  63.520	        19	    1200	     4.359
  63.540	        23	    1200	     4.796
  63.560	        24	    1200	     4.899
  63.580	        25	    1200	     5.000
  63.600	        30	    1200	     5.477
  63.620	        26	    1200	     5.099
  63.640	        32	    1200	     5.657
  63.660	        26	    1200	     5.099
  63.680	        34	    1200	     5.831
  63.700	        24	    1200	     4.899
  63.720	        29	    1200	     5.385
  63.740	        28	    1200	     5.292
  63.760	        29	    1200	     5.385
  63.780	        29	    1200	     5.385
  63.800	        35	    1200	     5.916
  63.820	        16	    1200	     4.000
  63.840	        28	    1200	     5.292
  63.860	        28	    1200	     5.292
  63.880	        19	    1200	     4.359
  63.900	        18	    1200	     4.243
  63.920	        24	    1200	     4.899
  63.940	        22	    1200	     4.690
  63.960	        25	    1200	     5.000
  63.980	        28	    1200	     5.292
  64.000	        21	    1200	     4.583
  64.020	        15	    1200	     3.873
  64.040	        20	    1200	     4.472
  64.060	        23	    1200	     4.796
  64.080	        19	    1200	     4.359
  64.100	        21	    1200	     4.583
  64.120	        21	    1200	     4.583
  64.140	        18	    1200	     4.243
  64.160	        19	    1200	     4.359
  64.180	        17	    1200	     4.123
  64.200	        16	    1200	     4.000
  64.220	        22	    1200	     4.690
  64.240	        22	    1200	     4.690
  64.260	        20	    1200	     4.472
  64.280	        17	    1200	     4.123
  64.300	        12	    1200	     3.464
  64.320	        26	    1200	     5.099
  64.340	        20	    1200	     4.472
  64.360	        17	    1200	     4.123
  64.380	        14	    1200	     3.742
  64.400	        16	    1200	     4.000
  64.420	        22	    1200	     4.690
  64.440	        28	    1200	     5.292
  64.460	        21	    1200	     4.583
  64.480	        17	    1200	     4.123
  64.500	        22	    1200	     4.690
  64.520	        25	    1200	     5.000
  64.540	        13	    1200	     3.606
  64.560	        14	    1200	     3.742
  64.580	        11	    1200	     3.317
  64.600	         9	    1200	     3.000
  64.620	        24	    1200	     4.899
  64.640	        18	    1200	     4.243
  64.660	        21	    1200	     4.583
  64.680	        19	    1200	     4.359
  64.700	        28	    1200	     5.292
  64.720	        21	    1200	     4.583
  64.740	        13	    1200	     3.606
  64.760	        26	    1200	     5.099
  64.780	        21	    1200	     4.583
  64.800	        18	    1200	     4.243
  64.820	        19	    1200	     4.359
  64.840	        13	    1200	     3.606
  64.860	        20	    1200	     4.472
  64.880	        14	    1200	     3.742
  64.900	        15	    1200	     3.873
  64.920	        24	    1200	     4.899
  64.940	        19	    1200	     4.359
  64.960	        15	    1200	     3.873
  64.980	        23	    1200	     4.796
  65.000	        13	    1200	     3.606
  65.020	        14	    1200	     3.742
  65.040	        22	    1200	     4.690
  65.060	        18	    1200	     4.243
  65.080	        15	    1200	     3.873
  65.100	        21	    1200	     4.583
  65.120	        16	    1200	     4.000
  65.140	        22	    1200	     4.690
  65.160	        21	    1200	     4.583
  65.180	        16	    1200	     4.000
  65.200	        14	    1200	     3.742
  65.220	        18	    1200	     4.243
  65.240	        17	    1200	     4.123
  65.260	        17	    1200	     4.123
  65.280	        19	    1200	     4.359
  65.300	        15	    1200	     3.873
  65.320	        14	    1200	     3.742
  65.340	        15	    1200	     3.873
  65.360	        19	    1200	     4.359
  65.380	        20	    1200	     4.472
  65.400	        25	    1200	     5.000
  65.420	        15	    1200	     3.873
  65.440	        20	    1200	     4.472
  65.460	        11	    1200	     3.317
  65.480	        18	    1200	     4.243
  65.500	        15	    1200	     3.873
  65.520	        15	    1200	     3.873
  65.540	        10	    1200	     3.162
  65.560	        23	    1200	     4.796
  65.580	        23	    1200	     4.796
  65.600	        12	    1200	     3.464
  65.620	        26	    1200	     5.099
  65.640	        22	    1200	     4.690
  65.660	        13	    1200	     3.606
  65.680	        18	    1200	     4.243
  65.700	        23	    1200	     4.796
  65.720	        15	    1200	     3.873
  65.740	        16	    1200	     4.000
  65.760	        22	    1200	     4.690
  65.780	        22	    1200	     4.690
  65.800	        24	    1200	     4.899
  65.820	        18	    1200	     4.243
  65.840	        25	    1200	     5.000
  65.860	        25	    1200	     5.000
  65.880	        21	    1200	     4.583
  65.900	        17	    1200	     4.123
  65.920	        18	    1200	     4.243
  65.940	        23	    1200	     4.796
  65.960	        25	    1200	     5.000
  65.980	        26	    1200	     5.099
  66.000	        18	    1200	     4.243
  66.020	        27	    1200	     5.196
  66.040	        19	    1200	     4.359
  66.060	        20	    1200	     4.472
  66.080	        32	    1200	     5.657
  66.100	        17	    1200	     4.123
  66.120	        17	    1200	     4.123
  66.140	        18	    1200	     4.243
  66.160	        21	    1200	     4.583
  66.180	        22	    1200	     4.690
  66.200	        21	    1200	     4.583
  66.220	        22	    1200	     4.690
  66.240	        25	    1200	     5.000
  66.260	        10	    1200	     3.162
  66.280	        22	    1200	     4.690
  66.300	        21	    1200	     4.583
  66.320	        20	    1200	     4.472
  66.340	        31	    1200	     5.568
  66.360	        16	    1200	     4.000
  66.380	        23	    1200	     4.796
  66.400	        25	    1200	     5.000
  66.420	        34	    1200	     5.831
  66.440	        25	    1200	     5.000
  66.460	        19	    1200	     4.359
  66.480	        11	    1200	     3.317
  66.500	        25	    1200	     5.000
  66.520	        19	    1200	     4.359
  66.540	        26	    1200	     5.099
  66.560	        16	    1200	     4.000
  66.580	        26	    1200	     5.099
  66.600	        21	    1200	     4.583
  66.620	        21	    1200	     4.583
  66.640	        17	    1200	     4.123
  66.660	        22	    1200	     4.690
  66.680	        25	    1200	     5.000
  66.700	        27	    1200	     5.196
  66.720	        26	    1200	     5.099
  66.740	        28	    1200	     5.292
  66.760	        20	    1200	     4.472
  66.780	        18	    1200	     4.243
  66.800	        26	    1200	     5.099
  66.820	        29	    1200	     5.385
  66.840	        30	    1200	     5.477
  66.860	        28	    1200	     5.292
  66.880	        26	    1200	     5.099
  66.900	        29	    1200	     5.385
  66.920	        36	    1200	     6.000
  66.940	        40	    1200	     6.325
  66.960	        41	    1200	     6.403
  66.980	        38	    1200	     6.164
  67.000	        47	    1200	     6.856
  67.020	        51	    1200	     7.141
  67.040	        52	    1200	     7.211
  67.060	        62	    1200	     7.874
  67.080	        66	    1200	     8.124
  67.100	        49	    1200	     7.000
  67.120	        59	    1200	     7.681
  67.140	        60	    1200	     7.746
  67.160	        78	    1200	     8.832
  67.180	        82	    1200	     9.055
  67.200	        70	    1200	     8.367
  67.220	        84	    1200	     9.165
  67.240	        88	    1200	     9.381
  67.260	        79	    1200	     8.888
  67.280	       131	    1200	    11.446
  67.300	       135	    1200	    11.619
  67.320	       148	    1200	    12.166
  67.340	       163	    1200	    12.767
  67.360	       162	    1200	    12.728
  67.380	       227	    1200	    15.067
  67.400	       291	    1200	    17.059
  67.420	       304	    1200	    17.436
  67.440	       308	    1200	    17.550
  67.460	       378	    1200	    19.442
  67.480	       448	    1200	    21.166
  67.500	       439	    1200	    20.952
  67.520	       453	    1200	    21.284
  67.540	       450	    1200	    21.213
  67.560	       444	    1200	    21.071
  67.580	       410	    1200	    20.248
  67.600	       421	    1200	    20.518
  67.620	       367	    1200	    19.157
  67.640	       330	    1200	    18.166
  67.660	       315	    1200	    17.748
  67.680	       295	    1200	    17.176
  67.700	       307	    1200	    17.521
  67.720	       290	    1200	    17.029
  67.740	       308	    1200	    17.550
  67.760	       237	    1200	    15.395
  67.780	       199	    1200	    14.107
  67.800	       172	    1200	    13.115
  67.820	       160	    1200	    12.649
  67.840	       157	    1200	    12.530
  67.860	       117	    1200	    10.817
  67.880	        97	    1200	     9.849
  67.900	        79	    1200	     8.888
  67.920	        75	    1200	     8.660
  67.940	        76	    1200	     8.718
  67.960	        75	    1200	     8.660
  67.980	        42	    1200	     6.481
  68.000	        55	    1200	     7.416
  68.020	        42	    1200	     6.481
  68.040	        56	    1200	     7.483
  68.060	        55	    1200	     7.416
  68.080	        46	    1200	     6.782
  68.100	        54	    1200	     7.348
  68.120	        35	    1200	     5.916
  68.140	        31	    1200	     5.568
  68.160	        34	    1200	     5.831
  68.180	        27	    1200	     5.196
  68.200	        24	    1200	     4.899
  68.220	        30	    1200	     5.477
  68.240	        33	    1200	     5.745
  68.260	        32	    1200	     5.657
  68.280	        36	    1200	     6.000
  68.300	        29	    1200	     5.385
  68.320	        23	    1200	     4.796
  68.340	        33	    1200	     5.745
  68.360	        30	    1200	     5.477
  68.380	        23	    1200	     4.796
  68.400	        22	    1200	     4.690
  68.420	        32	    1200	     5.657
  68.440	        22	    1200	     4.690
  68.460	        27	    1200	     5.196
  68.480	        24	    1200	     4.899
  68.500	        14	    1200	     3.742
  68.520	        25	    1200	     5.000
  68.540	        30	    1200	     5.477
  68.560	        19	    1200	     4.359
  68.580	        23	    1200	     4.796
  68.600	        18	    1200	     4.243
  68.620	        20	    1200	     4.472
  68.640	        27	    1200	     5.196
  68.660	        33	    1200	     5.745
  68.680	        25	    1200	     5.000
  68.700	        14	    1200	     3.742
  68.720	        19	    1200	     4.359
  68.740	        28	    1200	     5.292
  68.760	        24	    1200	     4.899
  68.780	        21	    1200	     4.583
  68.800	        20	    1200	     4.472
  68.820	        24	    1200	     4.899
  68.840	        21	    1200	     4.583
  68.860	        18	    1200	     4.243
  68.880	        18	    1200	     4.243
  68.900	        26	    1200	     5.099
  68.920	        15	    1200	     3.873
  68.940	        17	    1200	     4.123
  68.960	        20	    1200	     4.472
  68.980	        24	    1200	     4.899
  69.000	        14	    1200	     3.742
  69.020	        23	    1200	     4.796
  69.040	        16	    1200	     4.000
  69.060	        15	    1200	     3.873
  69.080	        18	    1200	     4.243
  69.100	        14	    1200	     3.742
  69.120	        13	    1200	     3.606
  69.140	        18	    1200	     4.243
  69.160	        23	    1200	     4.796
  69.180	        19	    1200	     4.359
  69.200	        18	    1200	     4.243
  69.220	        21	    1200	     4.583
  69.240	        14	    1200	     3.742
  69.260	        20	    1200	     4.472
  69.280	        11	    1200	     3.317
  69.300	        15	    1200	     3.873
  69.320	        15	    1200	     3.873
  69.340	        18	    1200	     4.243
  69.360	        17	    1200	     4.123
  69.380	        16	    1200	     4.000
  69.400	        21	    1200	     4.583
  69.420	        13	    1200	     3.606
  69.440	         8	    1200	     2.828
  69.460	        18	    1200	     4.243
  69.480	        15	    1200	     3.873
  69.500	        16	    1200	     4.000
  69.520	        23	    1200	     4.796
  69.540	         9	    1200	     3.000
  69.560	        15	    1200	     3.873
  69.580	        12	    1200	     3.464
  69.600	        20	    1200	     4.472
  69.620	        17	    1200	     4.123
  69.640	        17	    1200	     4.123
  69.660	        16	    1200	     4.000
  69.680	        22	    1200	     4.690
  69.700	        21	    1200	     4.583
  69.720	        13	    1200	     3.606
  69.740	        11	    1200	     3.317
  69.760	        15	    1200	     3.873
  69.780	        23	    1200	     4.796
  69.800	        15	    1200	     3.873
  69.820	        18	    1200	     4.243
  69.840	        17	    1200	     4.123
  69.860	        14	    1200	     3.742
  69.880	        18	    1200	     4.243
  69.900	        21	    1200	     4.583
  69.920	        14	    1200	     3.742
  69.940	        11	    1200	     3.317
  69.960	        13	    1200	     3.606
  69.980	        18	    1200	     4.243
  70.000	        25	    1200	     5.000
  70.020	        13	    1200	     3.606
  70.040	        14	    1200	     3.742
  70.060	        23	    1200	     4.796
  70.080	        25	    1200	     5.000
  70.100	        12	    1200	     3.464
  70.120	        13	    1200	     3.606
  70.140	        19	    1200	     4.359
  70.160	        13	    1200	     3.606
  70.180	        14	    1200	     3.742
  70.200	        22	    1200	     4.690
  70.220	        23	    1200	     4.796
  70.240	        18	    1200	     4.243
  70.260	        12	    1200	     3.464
  70.280	        18	    1200	     4.243
  70.300	        13	    1200	     3.606
  70.320	        12	    1200	     3.464
  70.340	        12	    1200	     3.464
  70.360	        16	    1200	     4.000
  70.380	        10	    1200	     3.162
  70.400	        16	    1200	     4.000
  70.420	        19	    1200	     4.359
  70.440	        12	    1200	     3.464
  70.460	        16	    1200	     4.000
  70.480	        10	    1200	     3.162
  70.500	        20	    1200	     4.472
  70.520	        13	    1200	     3.606
  70.540	        18	    1200	     4.243
  70.560	        19	    1200	     4.359
  70.580	        21	    1200	     4.583
  70.600	        13	    1200	     3.606
  70.620	        20	    1200	     4.472
  70.640	         8	    1200	     2.828
  70.660	        20	    1200	     4.472
  70.680	         7	    1200	     2.646
  70.700	         8	    1200	     2.828
  70.720	        16	    1200	     4.000
  70.740	        16	    1200	     4.000
  70.760	        18	    1200	     4.243
  70.780	        22	    1200	     4.690
  70.800	        20	    1200	     4.472
  70.820	        16	    1200	     4.000
  70.840	        17	    1200	     4.123
  70.860	         9	    1200	     3.000
  70.880	        10	    1200	     3.162
  70.900	        19	    1200	     4.359
  70.920	        21	    1200	     4.583
  70.940	        15	    1200	     3.873
  70.960	        13	    1200	     3.606
  70.980	        15	    1200	     3.873
  71.000	        21	    1200	     4.583
  71.020	        13	    1200	     3.606
  71.040	        20	    1200	     4.472
  71.060	        12	    1200	     3.464
  71.080	        13	    1200	     3.606
  71.100	        14	    1200	     3.742
  71.120	        19	    1200	     4.359
  71.140	        18	    1200	     4.243
  71.160	        14	    1200	     3.742
  71.180	        10	    1200	     3.162
  71.200	        21	    1200	     4.583
  71.220	        16	    1200	     4.000
  71.240	        15	    1200	     3.873
  71.260	        17	    1200	     4.123
  71.280	        15	    1200	     3.873
  71.300	        16	    1200	     4.000
  71.320	        17	    1200	     4.123
  71.340	        17	    1200	     4.123
  71.360	        12	    1200	     3.464
  71.380	        15	    1200	     3.873
  71.400	        15	    1200	     3.873
  71.420	        14	    1200	     3.742
  71.440	        10	    1200	     3.162
  71.460	        23	    1200	     4.796
  71.480	        18	    1200	     4.243
  71.500	        17	    1200	     4.123
  71.520	        18	    1200	     4.243
  71.540	        13	    1200	     3.606
  71.560	        26	    1200	     5.099
  71.580	         9	    1200	     3.000
  71.600	        14	    1200	     3.742
  71.620	        13	    1200	     3.606
  71.640	        16	    1200	     4.000
  71.660	        16	    1200	     4.000
  71.680	        12	    1200	     3.464
  71.700	        13	    1200	     3.606
  71.720	        13	    1200	     3.606
  71.740	        17	    1200	     4.123
  71.760	        18	    1200	     4.243
  71.780	        17	    1200	     4.123
  71.800	        12	    1200	     3.464
  71.820	        15	    1200	     3.873
  71.840	         9	    1200	     3.000
  71.860	        26	    1200	     5.099
  71.880	        13	    1200	     3.606
  71.900	        19	    1200	     4.359
  71.920	        17	    1200	     4.123
  71.940	        14	    1200	     3.742
  71.960	        15	    1200	     3.873
  71.980	        23	    1200	     4.796
  72.000	        19	    1200	     4.359
  72.020	        21	    1200	     4.583
  72.040	        18	    1200	     4.243
  72.060	        16	    1200	     4.000
  72.080	        23	    1200	     4.796
  72.100	        21	    1200	     4.583
  72.120	        27	    1200	     5.196
  72.140	        27	    1200	     5.196
  72.160	        34	    1200	     5.831
  72.180	        35	    1200	     5.916
  72.200	        27	    1200	     5.196
  72.220	        41	    1200	     6.403
  72.240	        31	    1200	     5.568
  72.260	        45	    1200	     6.708
  72.280	        34	    1200	     5.831
  72.300	        28	    1200	     5.292
  72.320	        49	    1200	     7.000
  72.340	        35	    1200	     5.916
  72.360	        33	    1200	     5.745
  72.380	        28	    1200	     5.292
  72.400	        28	    1200	     5.292
  72.420	        33	    1200	     5.745
  72.440	        38	    1200	     6.164
  72.460	        35	    1200	     5.916
  72.480	        34	    1200	     5.831
  72.500	        23	    1200	     4.796
  72.520	        31	    1200	     5.568
  72.540	        24	    1200	     4.899
  72.560	        38	    1200	     6.164
  72.580	        21	    1200	     4.583
  72.600	        13	    1200	     3.606
  72.620	        17	    1200	     4.123
  72.640	        21	    1200	     4.583
  72.660	        18	    1200	     4.243
  72.680	        28	    1200	     5.292
  72.700	        24	    1200	     4.899
  72.720	        11	    1200	     3.317
  72.740	        14	    1200	     3.742
  72.760	        24	    1200	     4.899
  72.780	        24	    1200	     4.899
  72.800	        12	    1200	     3.464
  72.820	        21	    1200	     4.583
  72.840	        16	    1200	     4.000
  72.860	        20	    1200	     4.472
  72.880	        13	    1200	     3.606
  72.900	        16	    1200	     4.000
  72.920	        19	    1200	     4.359
  72.940	        20	    1200	     4.472
  72.960	        16	    1200	     4.000
  72.980	        21	    1200	     4.583
  73.000	        24	    1200	     4.899
  73.020	        11	    1200	     3.317
  73.040	        15	    1200	     3.873
  73.060	        15	    1200	     3.873
  73.080	        17	    1200	     4.123
  73.100	        15	    1200	     3.873
  73.120	        19	    1200	     4.359
  73.140	        18	    1200	     4.243
  73.160	        15	    1200	     3.873
  73.180	        14	    1200	     3.742
  73.200	        11	    1200	     3.317
  73.220	         7	    1200	     2.646
  73.240	        16	    1200	     4.000
  73.260	        12	    1200	     3.464
  73.280	        18	    1200	     4.243
  73.300	        12	    1200	     3.464
  73.320	        11	    1200	     3.317
  73.340	        24	    1200	     4.899
  73.360	        12	    1200	     3.464
  73.380	        10	    1200	     3.162
  73.400	        13	    1200	     3.606
  73.420	        17	    1200	     4.123
  73.440	        17	    1200	     4.123
  73.460	        23	    1200	     4.796
  73.480	         8	    1200	     2.828
  73.500	        17	    1200	     4.123
  73.520	        28	    1200	     5.292
  73.540	        17	    1200	     4.123
  73.560	        11	    1200	     3.317
  73.580	        11	    1200	     3.317
  73.600	        16	    1200	     4.000
  73.620	        17	    1200	     4.123
  73.640	        14	    1200	     3.742
  73.660	        18	    1200	     4.243
  73.680	        14	    1200	     3.742
  73.700	        14	    1200	     3.742
  73.720	        13	    1200	     3.606
  73.740	        15	    1200	     3.873
  73.760	        15	    1200	     3.873
  73.780	        18	    1200	     4.243
  73.800	        16	    1200	     4.000
  73.820	        18	    1200	     4.243
  73.840	        10	    1200	     3.162
  73.860	        13	    1200	     3.606
  73.880	        15	    1200	     3.873
  73.900	        19	    1200	     4.359
  73.920	        14	    1200	     3.742
  73.940	        14	    1200	     3.742
  73.960	        12	    1200	     3.464
  73.980	        13	    1200	     3.606
  74.000	        14	    1200	     3.742
  74.020	        10	    1200	     3.162
  74.040	        16	    1200	     4.000
  74.060	        17	    1200	     4.123
  74.080	        10	    1200	     3.162
  74.100	        13	    1200	     3.606
  74.120	        21	    1200	     4.583
  74.140	        17	    1200	     4.123
  74.160	        11	    1200	     3.317
  74.180	        16	    1200	     4.000
  74.200	        16	    1200	     4.000
  74.220	         4	    1200	     2.000
  74.240	        12	    1200	     3.464
  74.260	        10	    1200	     3.162
  74.280	        20	    1200	     4.472
  74.300	        14	    1200	     3.742
  74.320	        16	    1200	     4.000
  74.340	        18	    1200	     4.243
  74.360	         6	    1200	     2.449
  74.380	        19	    1200	     4.359
  74.400	         9	    1200	     3.000
  74.420	        15	    1200	     3.873
  74.440	        26	    1200	     5.099
  74.460	        15	    1200	     3.873
  74.480	        22	    1200	     4.690
  74.500	        14	    1200	     3.742
  74.520	        18	    1200	     4.243
  74.540	        11	    1200	     3.317
  74.560	        29	    1200	     5.385
  74.580	        10	    1200	     3.162
  74.600	        17	    1200	     4.123
  74.620	        18	    1200	     4.243
  74.640	        12	    1200	     3.464
  74.660	        16	    1200	     4.000
  74.680	        12	    1200	     3.464
  74.700	        15	    1200	     3.873
  74.720	        13	    1200	     3.606
  74.740	        16	    1200	     4.000
  74.760	        12	    1200	     3.464
  74.780	        10	    1200	     3.162
  74.800	        12	    1200	     3.464
  74.820	        14	    1200	     3.742
  74.840	        18	    1200	     4.243
  74.860	        16	    1200	     4.000
  74.880	        20	    1200	     4.472
  74.900	        16	    1200	     4.000
  74.920	        13	    1200	     3.606
  74.940	        14	    1200	     3.742
  74.960	        12	    1200	     3.464
  74.980	        10	    1200	     3.162
  75.000	        12	    1200	     3.464
  75.020	        16	    1200	     4.000
  75.040	        12	    1200	     3.464
  75.060	        14	    1200	     3.742
  75.080	        16	    1200	     4.000
  75.100	        12	    1200	     3.464
  75.120	        19	    1200	     4.359
  75.140	        17	    1200	     4.123
  75.160	        19	    1200	     4.359
  75.180	        18	    1200	     4.243
  75.200	        21	    1200	     4.583
  75.220	        17	    1200	     4.123
  75.240	        21	    1200	     4.583
  75.260	        15	    1200	     3.873
  75.280	        14	    1200	     3.742
  75.300	        13	    1200	     3.606
  75.320	        23	    1200	     4.796
  75.340	        22	    1200	     4.690
  75.360	        13	    1200	     3.606
  75.380	        16	    1200	     4.000
  75.400	        16	    1200	     4.000
  75.420	        23	    1200	     4.796
  75.440	        19	    1200	     4.359
  75.460	        21	    1200	     4.583
  75.480	        20	    1200	     4.472
  75.500	        22	    1200	     4.690
  75.520	        14	    1200	     3.742
  75.540	        21	    1200	     4.583
  75.560	        13	    1200	     3.606
  75.580	        14	    1200	     3.742
  75.600	        21	    1200	     4.583
  75.620	        14	    1200	     3.742
  75.640	        18	    1200	     4.243
  75.660	        16	    1200	     4.000
  75.680	        23	    1200	     4.796
  75.700	        21	    1200	     4.583
  75.720	         8	    1200	     2.828
  75.740	        21	    1200	     4.583
  75.760	        20	    1200	     4.472
  75.780	        24	    1200	     4.899
  75.800	        25	    1200	     5.000
  75.820	        17	    1200	     4.123
  75.840	        20	    1200	     4.472
  75.860	        25	    1200	     5.000
  75.880	        21	    1200	     4.583
  75.900	        23	    1200	     4.796
  75.920	        17	    1200	     4.123
  75.940	        18	    1200	     4.243
  75.960	        22	    1200	     4.690
  75.980	        24	    1200	     4.899
  76.000	        25	    1200	     5.000
  76.020	        20	    1200	     4.472
  76.040	        20	    1200	     4.472
  76.060	        30	    1200	     5.477
  76.080	        22	    1200	     4.690
  76.100	        23	    1200	     4.796
  76.120	        22	    1200	     4.690
  76.140	        27	    1200	     5.196
  76.160	        29	    1200	     5.385
  76.180	        31	    1200	     5.568
  76.200	        39	    1200	     6.245
  76.220	        26	    1200	     5.099
  76.240	        39	    1200	     6.245
  76.260	        36	    1200	     6.000
  76.280	        35	    1200	     5.916
  76.300	        43	    1200	     6.557
  76.320	        43	    1200	     6.557
  76.340	        39	    1200	     6.245
  76.360	        44	    1200	     6.633
  76.380	        41	    1200	     6.403
  76.400	        49	    1200	     7.000
  76.420	        42	    1200	     6.481
  76.440	        47	    1200	     6.856
  76.460	        48	    1200	     6.928
  76.480	        55	    1200	     7.416
  76.500	        58	    1200	     7.616
  76.520	        64	    1200	     8.000
  76.540	        60	    1200	     7.746
  76.560	        60	    1200	     7.746
  76.580	        69	    1200	     8.307
  76.600	        98	    1200	     9.899
  76.620	       104	    1200	    10.198
  76.640	       111	    1200	    10.536
  76.660	       110	    1200	    10.488
  76.680	       129	    1200	    11.358
  76.700	       140	    1200	    11.832
  76.720	       184	    1200	    13.565
  76.740	       192	    1200	    13.856
  76.760	       226	    1200	    15.033
  76.780	       246	    1200	    15.684
  76.800	       250	    1200	    15.811
  76.820	       305	    1200	    17.464
  76.840	       298	    1200	    17.263
  76.860	       310	    1200	    17.607
  76.880	       312	    1200	    17.664
  76.900	       293	    1200	    17.117
  76.920	       271	    1200	    16.462
  76.940	       294	    1200	    17.146
  76.960	       256	    1200	    16.000
  76.980	       258	    1200	    16.062
  77.000	       200	    1200	    14.142
  77.020	       223	    1200	    14.933
  77.040	       230	    1200	    15.166
  77.060	       242	    1200	    15.556
  77.080	       205	    1200	    14.318
  77.100	       180	    1200	    13.416
  77.120	       203	    1200	    14.248
  77.140	       164	    1200	    12.806
  77.160	       164	    1200	    12.806
  77.180	       136	    1200	    11.662
  77.200	       132	    1200	    11.489
  77.220	       113	    1200	    10.630
  77.240	        88	    1200	     9.381
  77.260	        92	    1200	     9.592
  77.280	        57	    1200	     7.550
  77.300	        66	    1200	     8.124
  77.320	        68	    1200	     8.246
  77.340	        68	    1200	     8.246
  77.360	        56	    1200	     7.483
  77.380	        54	    1200	     7.348
  77.400	        57	    1200	     7.550
  77.420	        40	    1200	     6.325
  77.440	        43	    1200	     6.557
  77.460	        41	    1200	     6.403
  77.480	        30	    1200	     5.477
  77.500	        41	    1200	     6.403
  77.520	        37	    1200	     6.083
  77.540	        31	    1200	     5.568
  77.560	        31	    1200	     5.568
  77.580	        32	    1200	     5.657
  77.600	        34	    1200	     5.831
  77.620	        28	    1200	     5.292
  77.640	        30	    1200	     5.477
  77.660	        38	    1200	     6.164
  77.680	        20	    1200	     4.472
  77.700	        24	    1200	     4.899
  77.720	        23	    1200	     4.796
  77.740	        32	    1200	     5.657
  77.760	        31	    1200	     5.568
  77.780	        21	    1200	     4.583
  77.800	        25	    1200	     5.000
  77.820	        27	    1200	     5.196
  77.840	        27	    1200	     5.196
  77.860	        22	    1200	     4.690
  77.880	        23	    1200	     4.796
  77.900	        17	    1200	     4.123
  77.920	        21	    1200	     4.583
  77.940	        21	    1200	     4.583
  77.960	        21	    1200	     4.583
  77.980	        23	    1200	     4.796
  78.000	        19	    1200	     4.359
  78.020	        22	    1200	     4.690
  78.040	        17	    1200	     4.123
  78.060	        14	    1200	     3.742
  78.080	        22	    1200	     4.690
  78.100	        25	    1200	     5.000
  78.120	        19	    1200	     4.359
  78.140	        20	    1200	     4.472
  78.160	        18	    1200	     4.243
  78.180	        22	    1200	     4.690
  78.200	        19	    1200	     4.359
  78.220	        13	    1200	     3.606
  78.240	        21	    1200	     4.583
  78.260	        22	    1200	     4.690
  78.280	        16	    1200	     4.000
  78.300	        19	    1200	     4.359
  78.320	        14	    1200	     3.742
  78.340	        14	    1200	     3.742
  78.360	        17	    1200	     4.123
  78.380	        24	    1200	     4.899
  78.400	        21	    1200	     4.583
  78.420	        23	    1200	     4.796
  78.440	        19	    1200	     4.359
  78.460	        13	    1200	     3.606
  78.480	        19	    1200	     4.359
  78.500	        26	    1200	     5.099
  78.520	        11	    1200	     3.317
  78.540	        27	    1200	     5.196
  78.560	        28	    1200	     5.292
  78.580	        20	    1200	     4.472
  78.600	        18	    1200	     4.243
  78.620	        20	    1200	     4.472
  78.640	        25	    1200	     5.000
  78.660	        19	    1200	     4.359
  78.680	        10	    1200	     3.162
  78.700	        17	    1200	     4.123
  78.720	        22	    1200	     4.690
  78.740	        18	    1200	     4.243
  78.760	        19	    1200	     4.359
  78.780	        15	    1200	     3.873
  78.800	        25	    1200	     5.000
  78.820	        15	    1200	     3.873
  78.840	        11	    1200	     3.317
  78.860	        18	    1200	     4.243
  78.880	        22	    1200	     4.690
  78.900	        24	    1200	     4.899
  78.920	        14	    1200	     3.742
  78.940	        14	    1200	     3.742
  78.960	        18	    1200	     4.243
  78.980	        26	    1200	     5.099
  79.000	        15	    1200	     3.873
  79.020	        23	    1200	     4.796
  79.040	        19	    1200	     4.359
  79.060	        13	    1200	     3.606
  79.080	        20	    1200	     4.472
  79.100	        15	    1200	     3.873
  79.120	        19	    1200	     4.359
  79.140	        14	    1200	     3.742
  79.160	        21	    1200	     4.583
  79.180	        20	    1200	     4.472
  79.200	        22	    1200	     4.690
  79.220	        15	    1200	     3.873
  79.240	        19	    1200	     4.359
  79.260	        15	    1200	     3.873
  79.280	        16	    1200	     4.000
  79.300	        17	    1200	     4.123
  79.320	        15	    1200	     3.873
  79.340	        12	    1200	     3.464
  79.360	         8	    1200	     2.828
  79.380	        18	    1200	     4.243
  79.400	        14	    1200	     3.742
  79.420	        18	    1200	     4.243
  79.440	        12	    1200	     3.464
  79.460	        13	    1200	     3.606
  79.480	        14	    1200	     3.742
  79.500	        18	    1200	     4.243
  79.520	        19	    1200	     4.359
  79.540	        25	    1200	     5.000
  79.560	        19	    1200	     4.359
  79.580	        12	    1200	     3.464
  79.600	        14	    1200	     3.742
  79.620	        16	    1200	     4.000
  79.640	        18	    1200	     4.243
  79.660	        15	    1200	     3.873
  79.680	        22	    1200	     4.690
  79.700	         9	    1200	     3.000
  79.720	        13	    1200	     3.606
  79.740	        13	    1200	     3.606
  79.760	        24	    1200	     4.899
  79.780	        18	    1200	     4.243
  79.800	        17	    1200	     4.123
  79.820	        25	    1200	     5.000
  79.840	        21	    1200	     4.583
  79.860	        14	    1200	     3.742
  79.880	        19	    1200	     4.359
  79.900	        19	    1200	     4.359
  79.920	        21	    1200	     4.583
  79.940	        22	    1200	     4.690
  79.960	        19	    1200	     4.359
  79.980	        11	    1200	     3.317
  80.000	        18	    1200	     4.243
  80.020	        16	    1200	     4.000
  80.040	        22	    1200	     4.690
  80.060	        22	    1200	     4.690
  80.080	        10	    1200	     3.162
  80.100	        20	    1200	     4.472
  80.120	        16	    1200	     4.000
  80.140	        22	    1200	     4.690
  80.160	        12	    1200	     3.464
  80.180	        14	    1200	     3.742
  80.200	        25	    1200	     5.000
  80.220	        14	    1200	     3.742
  80.240	        25	    1200	     5.000
  80.260	        23	    1200	     4.796
  80.280	        18	    1200	     4.243
  80.300	        26	    1200	     5.099
  80.320	        13	    1200	     3.606
  80.340	        26	    1200	     5.099
  80.360	        25	    1200	     5.000
  80.380	        22	    1200	     4.690
  80.400	        18	    1200	     4.243
  80.420	        16	    1200	     4.000
  80.440	        17	    1200	     4.123
  80.460	        14	    1200	     3.742
  80.480	        18	    1200	     4.243
  80.500	        25	    1200	     5.000
  80.520	        18	    1200	     4.243
  80.540	        15	    1200	     3.873
  80.560	        16	    1200	     4.000
  80.580	        17	    1200	     4.123
  80.600	        15	    1200	     3.873
  80.620	        18	    1200	     4.243
  80.640	        20	    1200	     4.472
  80.660	        15	    1200	     3.873
  80.680	        17	    1200	     4.123
  80.700	        17	    1200	     4.123
  80.720	        16	    1200	     4.000
  80.740	        17	    1200	     4.123
  80.760	        18	    1200	     4.243
  80.780	        19	    1200	     4.359
  80.800	        24	    1200	     4.899
  80.820	        17	    1200	     4.123
  80.840	        21	    1200	     4.583
  80.860	        23	    1200	     4.796
  80.880	        11	    1200	     3.317
  80.900	        19	    1200	     4.359
  80.920	        22	    1200	     4.690
  80.940	        27	    1200	     5.196
  80.960	        24	    1200	     4.899
  80.980	        23	    1200	     4.796
  81.000	        26	    1200	     5.099
  81.020	        21	    1200	     4.583
  81.040	        24	    1200	     4.899
  81.060	        28	    1200	     5.292
  81.080	        23	    1200	     4.796
  81.100	        32	    1200	     5.657
  81.120	        30	    1200	     5.477
  81.140	        23	    1200	     4.796
  81.160	        34	    1200	     5.831
  81.180	        37	    1200	     6.083
  81.200	        38	    1200	     6.164
  81.220	        55	    1200	     7.416
  81.240	        62	    1200	     7.874
  81.260	        65	    1200	     8.062
  81.280	        55	    1200	     7.416
  81.300	        73	    1200	     8.544
  81.320	        81	    1200	     9.000
  81.340	        76	    1200	     8.718
  81.360	        80	    1200	     8.944
  81.380	        80	    1200	     8.944
  81.400	        60	    1200	     7.746
  81.420	        99	    1200	     9.950
  81.440	        67	    1200	     8.185
  81.460	        60	    1200	     7.746
  81.480	        59	    1200	     7.681
  81.500	        71	    1200	     8.426
  81.520	        65	    1200	     8.062
  81.540	        73	    1200	     8.544
  81.560	        72	    1200	     8.485
  81.580	        60	    1200	     7.746
  81.600	        67	    1200	     8.185
  81.620	        70	    1200	     8.367
  81.640	        51	    1200	     7.141
  81.660	        58	    1200	     7.616
  81.680	        46	    1200	     6.782
  81.700	        42	    1200	     6.481
  81.720	        48	    1200	     6.928
  81.740	        54	    1200	     7.348
  81.760	        48	    1200	     6.928
  81.780	        48	    1200	     6.928
  81.800	        32	    1200	     5.657
  81.820	        39	    1200	     6.245
  81.840	        39	    1200	     6.245
  81.860	        34	    1200	     5.831
  81.880	        16	    1200	     4.000
  81.900	        24	    1200	     4.899
  81.920	        33	    1200	     5.745
  81.940	        23	    1200	     4.796
  81.960	        32	    1200	     5.657
  81.980	        25	    1200	     5.000
  82.000	        37	    1200	     6.083
  82.020	        22	    1200	     4.690
  82.040	        20	    1200	     4.472
  82.060	        26	    1200	     5.099
  82.080	        34	    1200	     5.831
  82.100	        23	    1200	     4.796
  82.120	        25	    1200	     5.000
  82.140	        26	    1200	     5.099
  82.160	        19	    1200	     4.359
  82.180	        11	    1200	     3.317
  82.200	        23	    1200	     4.796
  82.220	        20	    1200	     4.472
  82.240	        26	    1200	     5.099
  82.260	        23	    1200	     4.796
  82.280	        21	    1200	     4.583
  82.300	        30	    1200	     5.477
  82.320	        22	    1200	     4.690
  82.340	        13	    1200	     3.606
  82.360	        27	    1200	     5.196
  82.380	        28	    1200	     5.292
  82.400	        18	    1200	     4.243
  82.420	        16	    1200	     4.000
  82.440	        25	    1200	     5.000
  82.460	        24	    1200	     4.899
  82.480	        29	    1200	     5.385
  82.500	        27	    1200	     5.196
  82.520	        19	    1200	     4.359
  82.540	        25	    1200	     5.000
  82.560	        26	    1200	     5.099
  82.580	        22	    1200	     4.690
  82.600	        28	    1200	     5.292
  82.620	        18	    1200	     4.243
  82.640	        27	    1200	     5.196
  82.660	        23	    1200	     4.796
  82.680	        20	    1200	     4.472
  82.700	        18	    1200	     4.243
  82.720	        15	    1200	     3.873
  82.740	        21	    1200	     4.583
  82.760	        22	    1200	     4.690
  82.780	        20	    1200	     4.472
  82.800	        15	    1200	     3.873
  82.820	        22	    1200	     4.690
  82.840	        27	    1200	     5.196
  82.860	        19	    1200	     4.359
  82.880	        21	    1200	     4.583
  82.900	        18	    1200	     4.243
  82.920	        14	    1200	     3.742
  82.940	        18	    1200	     4.243
  82.960	        18	    1200	     4.243
  82.980	        20	    1200	     4.472
  83.000	        15	    1200	     3.873
  83.020	        16	    1200	     4.000
  83.040	        17	    1200	     4.123
  83.060	        16	    1200	     4.000
  83.080	        17	    1200	     4.123
  83.100	        21	    1200	     4.583
  83.120	        15	    1200	     3.873
  83.140	        14	    1200	     3.742
  83.160	        21	    1200	     4.583
  83.180	        19	    1200	     4.359
  83.200	        19	    1200	     4.359
  83.220	        22	    1200	     4.690
  83.240	        11	    1200	     3.317
  83.260	        16	    1200	     4.000
  83.280	        12	    1200	     3.464
  83.300	        17	    1200	     4.123
  83.320	        20	    1200	     4.472
  83.340	        25	    1200	     5.000
  83.360	        16	    1200	     4.000
  83.380	        15	    1200	     3.873
  83.400	        24	    1200	     4.899
  83.420	        14	    1200	     3.742
  83.440	        16	    1200	     4.000
  83.460	        23	    1200	     4.796
  83.480	        14	    1200	     3.742
  83.500	        26	    1200	     5.099
  83.520	        15	    1200	     3.873
  83.540	        17	    1200	     4.123
  83.560	        21	    1200	     4.583
  83.580	        19	    1200	     4.359
  83.600	        18	    1200	     4.243
  83.620	        20	    1200	     4.472
  83.640	        14	    1200	     3.742
  83.660	        21	    1200	     4.583
  83.680	        15	    1200	     3.873
  83.700	        20	    1200	     4.472
  83.720	        20	    1200	     4.472
  83.740	        17	    1200	     4.123
  83.760	        19	    1200	     4.359
  83.780	        23	    1200	     4.796
  83.800	        12	    1200	     3.464
  83.820	        14	    1200	     3.742
  83.840	        13	    1200	     3.606
  83.860	        19	    1200	     4.359
  83.880	        20	    1200	     4.472
  83.900	        25	    1200	     5.000
  83.920	        20	    1200	     4.472
  83.940	        13	    1200	     3.606
  83.960	        17	    1200	     4.123
  83.980	        22	    1200	     4.690
  84.000	        16	    1200	     4.000
  84.020	        13	    1200	     3.606
  84.040	        18	    1200	     4.243
  84.060	        15	    1200	     3.873
  84.080	        15	    1200	     3.873
  84.100	        23	    1200	     4.796
  84.120	        17	    1200	     4.123
  84.140	        21	    1200	     4.583
  84.160	         9	    1200	     3.000
  84.180	        12	    1200	     3.464
  84.200	        16	    1200	     4.000
  84.220	        14	    1200	     3.742
  84.240	        15	    1200	     3.873
  84.260	        18	    1200	     4.243
  84.280	        22	    1200	     4.690
  84.300	        18	    1200	     4.243
  84.320	        21	    1200	     4.583
  84.340	        23	    1200	     4.796
  84.360	        14	    1200	     3.742
  84.380	        20	    1200	     4.472
  84.400	        13	    1200	     3.606
  84.420	        19	    1200	     4.359
  84.440	        15	    1200	     3.873
  84.460	        20	    1200	     4.472
  84.480	        24	    1200	     4.899
  84.500	        14	    1200	     3.742
  84.520	        23	    1200	     4.796
  84.540	        20	    1200	     4.472
  84.560	        18	    1200	     4.243
  84.580	        27	    1200	     5.196
  84.600	        22	    1200	     4.690
  84.620	        23	    1200	     4.796
  84.640	        20	    1200	     4.472
  84.660	        20	    1200	     4.472
  84.680	        14	    1200	     3.742
  84.700	        22	    1200	     4.690
  84.720	        23	    1200	     4.796
  84.740	        19	    1200	     4.359
  84.760	        12	    1200	     3.464
  84.780	        27	    1200	     5.196
  84.800	        27	    1200	     5.196
  84.820	        20	    1200	     4.472
  84.840	        19	    1200	     4.359
  84.860	        15	    1200	     3.873
  84.880	        16	    1200	     4.000
  84.900	        24	    1200	     4.899
  84.920	        22	    1200	     4.690
  84.940	        14	    1200	     3.742
  84.960	        20	    1200	     4.472
  84.980	        19	    1200	     4.359
  85.000	        26	    1200	     5.099
  85.020	        24	    1200	     4.899
  85.040	        19	    1200	     4.359
  85.060	        13	    1200	     3.606
  85.080	        18	    1200	     4.243
  85.100	        14	    1200	     3.742
  85.120	        19	    1200	     4.359
  85.140	        22	    1200	     4.690
  85.160	        20	    1200	     4.472
  85.180	        18	    1200	     4.243
  85.200	        23	    1200	     4.796
  85.220	        21	    1200	     4.583
  85.240	        24	    1200	     4.899
  85.260	        22	    1200	     4.690
  85.280	        22	    1200	     4.690
  85.300	        24	    1200	     4.899
  85.320	        15	    1200	     3.873
  85.340	        16	    1200	     4.000
  85.360	        22	    1200	     4.690
  85.380	        18	    1200	     4.243
  85.400	        22	    1200	     4.690
  85.420	        25	    1200	     5.000
  85.440	        25	    1200	     5.000
  85.460	        29	    1200	     5.385
  85.480	        32	    1200	     5.657
  85.500	        35	    1200	     5.916
  85.520	        38	    1200	     6.164
  85.540	        37	    1200	     6.083
  85.560	        36	    1200	     6.000
  85.580	        33	    1200	     5.745
  85.600	        48	    1200	     6.928
  85.620	        40	    1200	     6.325
  85.640	        42	    1200	     6.481
  85.660	        43	    1200	     6.557
  85.680	        71	    1200	     8.426
  85.700	        73	    1200	     8.544
  85.720	        67	    1200	     8.185
  85.740	        87	    1200	     9.327
  85.760	        99	    1200	     9.950
  85.780	       104	    1200	    10.198
  85.800	       107	    1200	    10.344
  85.820	       121	    1200	    11.000
  85.840	       113	    1200	    10.630
  85.860	       144	    1200	    12.000
  85.880	       142	    1200	    11.916
  85.900	       130	    1200	    11.402
  85.920	       135	    1200	    11.619
  85.940	       106	    1200	    10.296
  85.960	       119	    1200	    10.909
  85.980	        84	    1200	     9.165
  86.000	        99	    1200	     9.950
  86.020	       111	    1200	    10.536
  86.040	       101	    1200	    10.050
  86.060	        93	    1200	     9.644
  86.080	        93	    1200	     9.644
  86.100	        87	    1200	     9.327
  86.120	        84	    1200	     9.165
  86.140	        93	    1200	     9.644
  86.160	        89	    1200	     9.434
  86.180	        75	    1200	     8.660
  86.200	        71	    1200	     8.426
  86.220	        52	    1200	     7.211
  86.240	        58	    1200	     7.616
  86.260	        66	    1200	     8.124
  86.280	        43	    1200	     6.557
  86.300	        56	    1200	     7.483
  86.320	        40	    1200	     6.325
  86.340	        36	    1200	     6.000
  86.360	        34	    1200	     5.831
  86.380	        29	    1200	     5.385
  86.400	        26	    1200	     5.099
  86.420	        30	    1200	     5.477
  86.440	        33	    1200	     5.745
  86.460	        23	    1200	     4.796
  86.480	        26	    1200	     5.099
  86.500	        33	    1200	     5.745
  86.520	        25	    1200	     5.000
  86.540	        24	    1200	     4.899
  86.560	        21	    1200	     4.583
  86.580	        25	    1200	     5.000
  86.600	        32	    1200	     5.657
  86.620	        11	    1200	     3.317
  86.640	        13	    1200	     3.606
  86.660	        17	    1200	     4.123
  86.680	        17	    1200	     4.123
  86.700	        21	    1200	     4.583
  86.720	        16	    1200	     4.000
  86.740	        23	    1200	     4.796
  86.760	        17	    1200	     4.123
  86.780	        16	    1200	     4.000
  86.800	        19	    1200	     4.359
  86.820	        10	    1200	     3.162
  86.840	        13	    1200	     3.606
  86.860	        17	    1200	     4.123
  86.880	        16	    1200	     4.000
  86.900	        20	    1200	     4.472
  86.920	        20	    1200	     4.472
  86.940	        21	    1200	     4.583
  86.960	        22	    1200	     4.690
  86.980	        16	    1200	     4.000
  87.000	        18	    1200	     4.243
  87.020	        19	    1200	     4.359
  87.040	        23	    1200	     4.796
  87.060	        29	    1200	     5.385
  87.080	        15	    1200	     3.873
  87.100	        15	    1200	     3.873
  87.120	        11	    1200	     3.317
  87.140	        17	    1200	     4.123
  87.160	        14	    1200	     3.742
  87.180	        17	    1200	     4.123
  87.200	        15	    1200	     3.873
  87.220	        15	    1200	     3.873
  87.240	        15	    1200	     3.873
  87.260	        15	    1200	     3.873
  87.280	        10	    1200	     3.162
  87.300	        14	    1200	     3.742
  87.320	        16	    1200	     4.000
  87.340	        16	    1200	     4.000
  87.360	        14	    1200	     3.742
  87.380	        17	    1200	     4.123
  87.400	        24	    1200	     4.899
  87.420	        14	    1200	     3.742
  87.440	        18	    1200	     4.243
  87.460	        11	    1200	     3.317
  87.480	        17	    1200	     4.123
  87.500	         7	    1200	     2.646
  87.520	        18	    1200	     4.243
  87.540	        16	    1200	     4.000
  87.560	        16	    1200	     4.000
  87.580	         9	    1200	     3.000
  87.600	        15	    1200	     3.873
  87.620	        14	    1200	     3.742
  87.640	        19	    1200	     4.359
  87.660	        15	    1200	     3.873
  87.680	        15	    1200	     3.873
  87.700	        12	    1200	     3.464
  87.720	        26	    1200	     5.099
  87.740	        17	    1200	     4.123
  87.760	        18	    1200	     4.243
  87.780	        21	    1200	     4.583
  87.800	        18	    1200	     4.243
  87.820	        21	    1200	     4.583
  87.840	        18	    1200	     4.243
  87.860	        16	    1200	     4.000
  87.880	        17	    1200	     4.123
  87.900	        13	    1200	     3.606
  87.920	        17	    1200	     4.123
  87.940	        12	    1200	     3.464
  87.960	        15	    1200	     3.873
  87.980	        11	    1200	     3.317
  88.000	        15	    1200	     3.873
  88.020	         9	    1200	     3.000
  88.040	        18	    1200	     4.243
  88.060	        15	    1200	     3.873
  88.080	        14	    1200	     3.742
  88.100	         9	    1200	     3.000
  88.120	        12	    1200	     3.464
  88.140	        14	    1200	     3.742
  88.160	        19	    1200	     4.359
  88.180	        16	    1200	     4.000
  88.200	        16	    1200	     4.000
  88.220	        17	    1200	     4.123
  88.240	        15	    1200	     3.873
  88.260	        15	    1200	     3.873
  88.280	        14	    1200	     3.742
  88.300	         5	    1200	     2.236
  88.320	        16	    1200	     4.000
  88.340	        14	    1200	     3.742
  88.360	        22	    1200	     4.690
  88.380	        18	    1200	     4.243
  88.400	        16	    1200	     4.000
  88.420	        20	    1200	     4.472
  88.440	        10	    1200	     3.162
  88.460	        15	    1200	     3.873
  88.480	        17	    1200	     4.123
  88.500	        15	    1200	     3.873
  88.520	        12	    1200	     3.464
  88.540	        17	    1200	     4.123
  88.560	        26	    1200	     5.099
  88.580	        16	    1200	     4.000
  88.600	        17	    1200	     4.123
  88.620	        13	    1200	     3.606
  88.640	        21	    1200	     4.583
  88.660	        14	    1200	     3.742
  88.680	        22	    1200	     4.690
  88.700	        16	    1200	     4.000
  88.720	        20	    1200	     4.472
  88.740	        15	    1200	     3.873
  88.760	        17	    1200	     4.123
  88.780	        13	    1200	     3.606
  88.800	        14	    1200	     3.742
  88.820	        12	    1200	     3.464
  88.840	        22	    1200	     4.690
  88.860	        14	    1200	     3.742
  88.880	        20	    1200	     4.472
  88.900	        15	    1200	     3.873
  88.920	         5	    1200	     2.236
  88.940	        15	    1200	     3.873
  88.960	        14	    1200	     3.742
  88.980	        15	    1200	     3.873
  89.000	        14	    1200	     3.742
  89.020	        13	    1200	     3.606
  89.040	        16	    1200	     4.000
  89.060	        19	    1200	     4.359
  89.080	        13	    1200	     3.606
  89.100	        13	    1200	     3.606
  89.120	        16	    1200	     4.000
  89.140	        20	    1200	     4.472
  89.160	        10	    1200	     3.162
  89.180	        15	    1200	     3.873
  89.200	        17	    1200	     4.123
  89.220	        20	    1200	     4.472
  89.240	        11	    1200	     3.317
  89.260	        11	    1200	     3.317
  89.280	        16	    1200	     4.000
  89.300	        16	    1200	     4.000
  89.320	        20	    1200	     4.472
  89.340	        14	    1200	     3.742
  89.360	        10	    1200	     3.162
  89.380	        20	    1200	     4.472
  89.400	        12	    1200	     3.464
  89.420	        22	    1200	     4.690
  89.440	        17	    1200	     4.123
  89.460	        13	    1200	     3.606
  89.480	        18	    1200	     4.243
  89.500	        15	    1200	     3.873
  89.520	        13	    1200	     3.606
  89.540	         8	    1200	     2.828
  89.560	        14	    1200	     3.742
  89.580	        13	    1200	     3.606
  89.600	        14	    1200	     3.742
  89.620	        21	    1200	     4.583
  89.640	        25	    1200	     5.000
  89.660	        19	    1200	     4.359
  89.680	        11	    1200	     3.317
  89.700	        19	    1200	     4.359
  89.720	        19	    1200	     4.359
  89.740	        17	    1200	     4.123
  89.760	        13	    1200	     3.606
  89.780	        21	    1200	     4.583
  89.800	        21	    1200	     4.583
  89.820	        17	    1200	     4.123
  89.840	        24	    1200	     4.899
  89.860	        21	    1200	     4.583
  89.880	        17	    1200	     4.123
  89.900	        13	    1200	     3.606
  89.920	        24	    1200	     4.899
  89.940	        20	    1200	     4.472
  89.960	        14	    1200	     3.742
  89.980	        16	    1200	     4.000
  90.000	        12	    1200	     3.464
