         ID: 

    Comment: 

Scan Type: Normal
Start Angle: 15 deg.
Stop Angle: 90 deg.
Num Points: 3751
Step Size: 0.02 deg.
Datafile Res: 1600 
Scan Rate: 1.000000
Scan Mode: Continuous
Wavelength: 1.540562

Diffractometer Optics:
		Detector:
			 Type: Fixed Slits
			 X2 Configuration: No
		Tube: 
			 Type: Fixed Slits
			 X2 Configuration: No


Axis[0]
	 Selected   : no 
	 Iterative  : no 
	 Start Angle: 0.000000 
	 Stop Angle : 0.000000 
	 Step Size  : 0.000000 
	 Oscillating: no 

Axis[1]
	 Selected   : no 
	 Iterative  : no 
	 Start Angle: 0.000000 
	 Stop Angle : 0.000000 
	 Step Size  : 0.000000 
	 Oscillating: no 

Axis[2]
	 Selected   : no 
	 Iterative  : no 
	 Start Angle: 0.000000 
	 Stop Angle : 0.000000 
	 Step Size  : 0.000000 
	 Oscillating: no 

Axis[3]
	 Selected   : no 
	 Iterative  : no 
	 Start Angle: 0.000000 
	 Stop Angle : 0.000000 
	 Step Size  : 0.000000 
	 Oscillating: no 

Axis[4]
	 Selected   : no 
	 Iterative  : no 
	 Start Angle: 0.000000 
	 Stop Angle : 0.000000 
	 Step Size  : 0.000000 
	 Oscillating: no 

Axis[5]
	 Selected   : no 
	 Iterative  : no 
	 Start Angle: 0.000000 
	 Stop Angle : 0.000000 
	 Step Size  : 0.000000 
	 Oscillating: no 

Axis[6]
	 Selected   : no 
	 Iterative  : no 
	 Start Angle: 0.000000 
	 Stop Angle : 0.000000 
	 Step Size  : 0.000000 
	 Oscillating: no 

Axis[7]
	 Selected   : no 
	 Iterative  : no 
	 Start Angle: 0.000000 
	 Stop Angle : 0.000000 
	 Step Size  : 0.000000 
	 Oscillating: no 

Axis[8]
	 Selected   : no 
	 Iterative  : no 
	 Start Angle: 0.000000 
	 Stop Angle : 0.000000 
	 Step Size  : 0.000000 
	 Oscillating: no 

Axis[9]
	 Selected   : no 
	 Iterative  : no 
	 Start Angle: 0.000000 
	 Stop Angle : 0.000000 
	 Step Size  : 0.000000 
	 Oscillating: no 




	   Deg.    Counts 	   Time 	    ESD   

Range 0
  15.000	       122	    1200	    11.045
  15.020	       145	    1200	    12.042
  15.040	       130	    1200	    11.402
  15.060	       111	    1200	    10.536
  15.080	       123	    1200	    11.091
  15.100	       111	    1200	    10.536
  15.120	       121	    1200	    11.000
  15.140	       118	    1200	    10.863
  15.160	       113	    1200	    10.630
  15.180	       143	    1200	    11.958
  15.200	       134	    1200	    11.576
  15.220	       121	    1200	    11.000
  15.240	       134	    1200	    11.576
  15.260	       129	    1200	    11.358
  15.280	       124	    1200	    11.136
  15.300	       120	    1200	    10.954
  15.320	       126	    1200	    11.225
  15.340	       127	    1200	    11.269
  15.360	       148	    1200	    12.166
  15.380	       109	    1200	    10.440
  15.400	       109	    1200	    10.440
  15.420	       136	    1200	    11.662
  15.440	       140	    1200	    11.832
  15.460	       148	    1200	    12.166
  15.480	       120	    1200	    10.954
  15.500	       145	    1200	    12.042
  15.520	       152	    1200	    12.329
  15.540	       113	    1200	    10.630
  15.560	       128	    1200	    11.314
  15.580	       132	    1200	    11.489
  15.600	       125	    1200	    11.180
  15.620	       121	    1200	    11.000
  15.640	       148	    1200	    12.166
  15.660	       125	    1200	    11.180
  15.680	       123	    1200	    11.091
  15.700	       140	    1200	    11.832
  15.720	       103	    1200	    10.149
  15.740	       131	    1200	    11.446
  15.760	       136	    1200	    11.662
  15.780	       122	    1200	    11.045
  15.800	       131	    1200	    11.446
  15.820	       122	    1200	    11.045
  15.840	       152	    1200	    12.329
  15.860	       124	    1200	    11.136
  15.880	       116	    1200	    10.770
  15.900	       120	    1200	    10.954
  15.920	       124	    1200	    11.136
  15.940	       149	    1200	    12.207
  15.960	       124	    1200	    11.136
  15.980	       109	    1200	    10.440
  16.000	       126	    1200	    11.225
  16.020	       110	    1200	    10.488
  16.040	       125	    1200	    11.180
  16.060	       130	    1200	    11.402
  16.080	       133	    1200	    11.533
  16.100	       126	    1200	    11.225
  16.120	       122	    1200	    11.045
  16.140	       126	    1200	    11.225
  16.160	       128	    1200	    11.314
  16.180	       126	    1200	    11.225
  16.200	       130	    1200	    11.402
  16.220	       132	    1200	    11.489
  16.240	       109	    1200	    10.440
  16.260	       159	    1200	    12.610
  16.280	       101	    1200	    10.050
  16.300	       124	    1200	    11.136
  16.320	       107	    1200	    10.344
  16.340	       119	    1200	    10.909
  16.360	       124	    1200	    11.136
  16.380	       123	    1200	    11.091
  16.400	       141	    1200	    11.874
  16.420	       119	    1200	    10.909
  16.440	       128	    1200	    11.314
  16.460	       119	    1200	    10.909
  16.480	       123	    1200	    11.091
  16.500	       132	    1200	    11.489
  16.520	       103	    1200	    10.149
  16.540	       136	    1200	    11.662
  16.560	       124	    1200	    11.136
  16.580	       119	    1200	    10.909
  16.600	       126	    1200	    11.225
  16.620	       111	    1200	    10.536
  16.640	       134	    1200	    11.576
  16.660	       134	    1200	    11.576
  16.680	       131	    1200	    11.446
  16.700	       131	    1200	    11.446
  16.720	       137	    1200	    11.705
  16.740	       119	    1200	    10.909
  16.760	       134	    1200	    11.576
  16.780	       116	    1200	    10.770
  16.800	       144	    1200	    12.000
  16.820	       130	    1200	    11.402
  16.840	       120	    1200	    10.954
  16.860	       137	    1200	    11.705
  16.880	       128	    1200	    11.314
  16.900	       116	    1200	    10.770
  16.920	       137	    1200	    11.705
  16.940	       130	    1200	    11.402
  16.960	       130	    1200	    11.402
  16.980	       111	    1200	    10.536
  17.000	       127	    1200	    11.269
  17.020	       128	    1200	    11.314
  17.040	        97	    1200	     9.849
  17.060	       134	    1200	    11.576
  17.080	       133	    1200	    11.533
  17.100	       143	    1200	    11.958
  17.120	       140	    1200	    11.832
  17.140	       129	    1200	    11.358
  17.160	       124	    1200	    11.136
  17.180	       127	    1200	    11.269
  17.200	       132	    1200	    11.489
  17.220	       134	    1200	    11.576
  17.240	       114	    1200	    10.677
  17.260	       135	    1200	    11.619
  17.280	       108	    1200	    10.392
  17.300	       129	    1200	    11.358
  17.320	       128	    1200	    11.314
  17.340	       132	    1200	    11.489
  17.360	       129	    1200	    11.358
  17.380	       112	    1200	    10.583
  17.400	       117	    1200	    10.817
  17.420	       125	    1200	    11.180
  17.440	       140	    1200	    11.832
  17.460	       128	    1200	    11.314
  17.480	       124	    1200	    11.136
  17.500	       138	    1200	    11.747
  17.520	       139	    1200	    11.790
  17.540	       154	    1200	    12.410
  17.560	       113	    1200	    10.630
  17.580	       117	    1200	    10.817
  17.600	       149	    1200	    12.207
  17.620	       166	    1200	    12.884
  17.640	       113	    1200	    10.630
  17.660	       114	    1200	    10.677
  17.680	       136	    1200	    11.662
  17.700	       144	    1200	    12.000
  17.720	       122	    1200	    11.045
  17.740	       134	    1200	    11.576
  17.760	       126	    1200	    11.225
  17.780	       123	    1200	    11.091
  17.800	       119	    1200	    10.909
  17.820	       138	    1200	    11.747
  17.840	       135	    1200	    11.619
  17.860	       119	    1200	    10.909
  17.880	       132	    1200	    11.489
  17.900	       122	    1200	    11.045
  17.920	       119	    1200	    10.909
  17.940	       110	    1200	    10.488
  17.960	       112	    1200	    10.583
  17.980	       121	    1200	    11.000
  18.000	       120	    1200	    10.954
  18.020	       140	    1200	    11.832
  18.040	       132	    1200	    11.489
  18.060	       135	    1200	    11.619
  18.080	       118	    1200	    10.863
  18.100	       131	    1200	    11.446
  18.120	       132	    1200	    11.489
  18.140	       128	    1200	    11.314
  18.160	       131	    1200	    11.446
  18.180	       118	    1200	    10.863
  18.200	       141	    1200	    11.874
  18.220	       122	    1200	    11.045
  18.240	       110	    1200	    10.488
  18.260	       132	    1200	    11.489
  18.280	       147	    1200	    12.124
  18.300	       120	    1200	    10.954
  18.320	       132	    1200	    11.489
  18.340	       116	    1200	    10.770
  18.360	       114	    1200	    10.677
  18.380	       126	    1200	    11.225
  18.400	       124	    1200	    11.136
  18.420	       119	    1200	    10.909
  18.440	       133	    1200	    11.533
  18.460	       131	    1200	    11.446
  18.480	       146	    1200	    12.083
  18.500	       130	    1200	    11.402
  18.520	       121	    1200	    11.000
  18.540	       136	    1200	    11.662
  18.560	       125	    1200	    11.180
  18.580	       129	    1200	    11.358
  18.600	       130	    1200	    11.402
  18.620	       125	    1200	    11.180
  18.640	       129	    1200	    11.358
  18.660	       142	    1200	    11.916
  18.680	       149	    1200	    12.207
  18.700	       132	    1200	    11.489
  18.720	       142	    1200	    11.916
  18.740	       134	    1200	    11.576
  18.760	       122	    1200	    11.045
  18.780	       122	    1200	    11.045
  18.800	       146	    1200	    12.083
  18.820	       144	    1200	    12.000
  18.840	       122	    1200	    11.045
  18.860	       135	    1200	    11.619
  18.880	       131	    1200	    11.446
  18.900	       126	    1200	    11.225
  18.920	       130	    1200	    11.402
  18.940	       129	    1200	    11.358
  18.960	       112	    1200	    10.583
  18.980	       163	    1200	    12.767
  19.000	       167	    1200	    12.923
  19.020	       155	    1200	    12.450
  19.040	       141	    1200	    11.874
  19.060	       118	    1200	    10.863
  19.080	       149	    1200	    12.207
  19.100	       136	    1200	    11.662
  19.120	       122	    1200	    11.045
  19.140	       131	    1200	    11.446
  19.160	       135	    1200	    11.619
  19.180	       137	    1200	    11.705
  19.200	       122	    1200	    11.045
  19.220	       140	    1200	    11.832
  19.240	       125	    1200	    11.180
  19.260	       136	    1200	    11.662
  19.280	       126	    1200	    11.225
  19.300	       127	    1200	    11.269
  19.320	       133	    1200	    11.533
  19.340	       119	    1200	    10.909
  19.360	       113	    1200	    10.630
  19.380	       111	    1200	    10.536
  19.400	       130	    1200	    11.402
  19.420	       122	    1200	    11.045
  19.440	       153	    1200	    12.369
  19.460	       134	    1200	    11.576
  19.480	       139	    1200	    11.790
  19.500	       128	    1200	    11.314
  19.520	       126	    1200	    11.225
  19.540	       127	    1200	    11.269
  19.560	       130	    1200	    11.402
  19.580	       120	    1200	    10.954
  19.600	       128	    1200	    11.314
  19.620	       135	    1200	    11.619
  19.640	       130	    1200	    11.402
  19.660	       143	    1200	    11.958
  19.680	       140	    1200	    11.832
  19.700	       124	    1200	    11.136
  19.720	       145	    1200	    12.042
  19.740	       146	    1200	    12.083
  19.760	       124	    1200	    11.136
  19.780	       140	    1200	    11.832
  19.800	       128	    1200	    11.314
  19.820	       132	    1200	    11.489
  19.840	       132	    1200	    11.489
  19.860	       128	    1200	    11.314
  19.880	       133	    1200	    11.533
  19.900	       145	    1200	    12.042
  19.920	       159	    1200	    12.610
  19.940	       132	    1200	    11.489
  19.960	       127	    1200	    11.269
  19.980	       146	    1200	    12.083
  20.000	       133	    1200	    11.533
  20.020	       144	    1200	    12.000
  20.040	       150	    1200	    12.247
  20.060	       135	    1200	    11.619
  20.080	       136	    1200	    11.662
  20.100	       151	    1200	    12.288
  20.120	       158	    1200	    12.570
  20.140	       147	    1200	    12.124
  20.160	       140	    1200	    11.832
  20.180	       141	    1200	    11.874
  20.200	       136	    1200	    11.662
  20.220	       137	    1200	    11.705
  20.240	       161	    1200	    12.689
  20.260	       115	    1200	    10.724
  20.280	       137	    1200	    11.705
  20.300	       141	    1200	    11.874
  20.320	       167	    1200	    12.923
  20.340	       134	    1200	    11.576
  20.360	       136	    1200	    11.662
  20.380	       137	    1200	    11.705
  20.400	       173	    1200	    13.153
  20.420	       126	    1200	    11.225
  20.440	       147	    1200	    12.124
  20.460	       122	    1200	    11.045
  20.480	       124	    1200	    11.136
  20.500	       149	    1200	    12.207
  20.520	       137	    1200	    11.705
  20.540	       154	    1200	    12.410
  20.560	       151	    1200	    12.288
  20.580	       126	    1200	    11.225
  20.600	       146	    1200	    12.083
  20.620	       134	    1200	    11.576
  20.640	       136	    1200	    11.662
  20.660	       124	    1200	    11.136
  20.680	       122	    1200	    11.045
  20.700	       119	    1200	    10.909
  20.720	       140	    1200	    11.832
  20.740	       127	    1200	    11.269
  20.760	       140	    1200	    11.832
  20.780	       117	    1200	    10.817
  20.800	       138	    1200	    11.747
  20.820	       124	    1200	    11.136
  20.840	       133	    1200	    11.533
  20.860	       132	    1200	    11.489
  20.880	       135	    1200	    11.619
  20.900	       165	    1200	    12.845
  20.920	       150	    1200	    12.247
  20.940	       130	    1200	    11.402
  20.960	       146	    1200	    12.083
  20.980	       134	    1200	    11.576
  21.000	       147	    1200	    12.124
  21.020	       144	    1200	    12.000
  21.040	       138	    1200	    11.747
  21.060	       141	    1200	    11.874
  21.080	       125	    1200	    11.180
  21.100	       145	    1200	    12.042
  21.120	       146	    1200	    12.083
  21.140	       145	    1200	    12.042
  21.160	       152	    1200	    12.329
  21.180	       130	    1200	    11.402
  21.200	       135	    1200	    11.619
  21.220	       141	    1200	    11.874
  21.240	       133	    1200	    11.533
  21.260	       149	    1200	    12.207
  21.280	       127	    1200	    11.269
  21.300	       113	    1200	    10.630
  21.320	       144	    1200	    12.000
  21.340	       140	    1200	    11.832
  21.360	       151	    1200	    12.288
  21.380	       139	    1200	    11.790
  21.400	       135	    1200	    11.619
  21.420	       133	    1200	    11.533
  21.440	       137	    1200	    11.705
  21.460	       159	    1200	    12.610
  21.480	       125	    1200	    11.180
  21.500	       148	    1200	    12.166
  21.520	       146	    1200	    12.083
  21.540	       146	    1200	    12.083
  21.560	       128	    1200	    11.314
  21.580	       163	    1200	    12.767
  21.600	       153	    1200	    12.369
  21.620	       146	    1200	    12.083
  21.640	       125	    1200	    11.180
  21.660	       155	    1200	    12.450
  21.680	       142	    1200	    11.916
  21.700	       140	    1200	    11.832
  21.720	       139	    1200	    11.790
  21.740	       129	    1200	    11.358
  21.760	       142	    1200	    11.916
  21.780	       131	    1200	    11.446
  21.800	       140	    1200	    11.832
  21.820	       142	    1200	    11.916
  21.840	       129	    1200	    11.358
  21.860	       133	    1200	    11.533
  21.880	       126	    1200	    11.225
  21.900	       140	    1200	    11.832
  21.920	       137	    1200	    11.705
  21.940	       138	    1200	    11.747
  21.960	       154	    1200	    12.410
  21.980	       130	    1200	    11.402
  22.000	       162	    1200	    12.728
  22.020	       153	    1200	    12.369
  22.040	       143	    1200	    11.958
  22.060	       151	    1200	    12.288
  22.080	       135	    1200	    11.619
  22.100	       162	    1200	    12.728
  22.120	       143	    1200	    11.958
  22.140	       123	    1200	    11.091
  22.160	       138	    1200	    11.747
  22.180	       138	    1200	    11.747
  22.200	       147	    1200	    12.124
  22.220	       139	    1200	    11.790
  22.240	       144	    1200	    12.000
  22.260	       136	    1200	    11.662
  22.280	       145	    1200	    12.042
  22.300	       137	    1200	    11.705
  22.320	       148	    1200	    12.166
  22.340	       116	    1200	    10.770
  22.360	       119	    1200	    10.909
  22.380	       155	    1200	    12.450
  22.400	       144	    1200	    12.000
  22.420	       134	    1200	    11.576
  22.440	       152	    1200	    12.329
  22.460	       158	    1200	    12.570
  22.480	       151	    1200	    12.288
  22.500	       152	    1200	    12.329
  22.520	       148	    1200	    12.166
  22.540	       182	    1200	    13.491
  22.560	       139	    1200	    11.790
  22.580	       157	    1200	    12.530
  22.600	       156	    1200	    12.490
  22.620	       169	    1200	    13.000
  22.640	       195	    1200	    13.964
  22.660	       192	    1200	    13.856
  22.680	       212	    1200	    14.560
  22.700	       216	    1200	    14.697
  22.720	       187	    1200	    13.675
  22.740	       195	    1200	    13.964
  22.760	       188	    1200	    13.711
  22.780	       165	    1200	    12.845
  22.800	       151	    1200	    12.288
  22.820	       146	    1200	    12.083
  22.840	       163	    1200	    12.767
  22.860	       157	    1200	    12.530
  22.880	       178	    1200	    13.342
  22.900	       157	    1200	    12.530
  22.920	       136	    1200	    11.662
  22.940	       158	    1200	    12.570
  22.960	       140	    1200	    11.832
  22.980	       144	    1200	    12.000
  23.000	       152	    1200	    12.329
  23.020	       137	    1200	    11.705
  23.040	       119	    1200	    10.909
  23.060	       121	    1200	    11.000
  23.080	       152	    1200	    12.329
  23.100	       149	    1200	    12.207
  23.120	       142	    1200	    11.916
  23.140	       129	    1200	    11.358
  23.160	       142	    1200	    11.916
  23.180	       129	    1200	    11.358
  23.200	       131	    1200	    11.446
  23.220	       146	    1200	    12.083
  23.240	       129	    1200	    11.358
  23.260	       132	    1200	    11.489
  23.280	       175	    1200	    13.229
  23.300	       132	    1200	    11.489
  23.320	       124	    1200	    11.136
  23.340	       122	    1200	    11.045
  23.360	       129	    1200	    11.358
  23.380	       122	    1200	    11.045
  23.400	       118	    1200	    10.863
  23.420	       124	    1200	    11.136
  23.440	       105	    1200	    10.247
  23.460	       132	    1200	    11.489
  23.480	       120	    1200	    10.954
  23.500	       123	    1200	    11.091
  23.520	       152	    1200	    12.329
  23.540	       144	    1200	    12.000
  23.560	       146	    1200	    12.083
  23.580	       134	    1200	    11.576
  23.600	       129	    1200	    11.358
  23.620	       131	    1200	    11.446
  23.640	       136	    1200	    11.662
  23.660	       124	    1200	    11.136
  23.680	       133	    1200	    11.533
  23.700	       128	    1200	    11.314
  23.720	       120	    1200	    10.954
  23.740	       136	    1200	    11.662
  23.760	       113	    1200	    10.630
  23.780	       144	    1200	    12.000
  23.800	       133	    1200	    11.533
  23.820	       110	    1200	    10.488
  23.840	       128	    1200	    11.314
  23.860	       122	    1200	    11.045
  23.880	       130	    1200	    11.402
  23.900	       116	    1200	    10.770
  23.920	       124	    1200	    11.136
  23.940	       117	    1200	    10.817
  23.960	       138	    1200	    11.747
  23.980	       123	    1200	    11.091
  24.000	       118	    1200	    10.863
  24.020	       117	    1200	    10.817
  24.040	       128	    1200	    11.314
  24.060	       140	    1200	    11.832
  24.080	       129	    1200	    11.358
  24.100	       106	    1200	    10.296
  24.120	       119	    1200	    10.909
  24.140	       124	    1200	    11.136
  24.160	       100	    1200	    10.000
  24.180	       120	    1200	    10.954
  24.200	       138	    1200	    11.747
  24.220	       134	    1200	    11.576
  24.240	       120	    1200	    10.954
  24.260	       136	    1200	    11.662
  24.280	       115	    1200	    10.724
  24.300	       121	    1200	    11.000
  24.320	       126	    1200	    11.225
  24.340	       116	    1200	    10.770
  24.360	       111	    1200	    10.536
  24.380	       138	    1200	    11.747
  24.400	       128	    1200	    11.314
  24.420	       120	    1200	    10.954
  24.440	       113	    1200	    10.630
  24.460	       132	    1200	    11.489
  24.480	       116	    1200	    10.770
  24.500	       136	    1200	    11.662
  24.520	       120	    1200	    10.954
  24.540	        95	    1200	     9.747
  24.560	       129	    1200	    11.358
  24.580	       118	    1200	    10.863
  24.600	       110	    1200	    10.488
  24.620	       110	    1200	    10.488
  24.640	       118	    1200	    10.863
  24.660	       118	    1200	    10.863
  24.680	        88	    1200	     9.381
  24.700	       102	    1200	    10.100
  24.720	       113	    1200	    10.630
  24.740	       124	    1200	    11.136
  24.760	       113	    1200	    10.630
  24.780	       142	    1200	    11.916
  24.800	       123	    1200	    11.091
  24.820	       118	    1200	    10.863
  24.840	       131	    1200	    11.446
  24.860	       115	    1200	    10.724
  24.880	       118	    1200	    10.863
  24.900	       127	    1200	    11.269
  24.920	        98	    1200	     9.899
  24.940	       102	    1200	    10.100
  24.960	       110	    1200	    10.488
  24.980	       109	    1200	    10.440
  25.000	       137	    1200	    11.705
  25.020	       117	    1200	    10.817
  25.040	       124	    1200	    11.136
  25.060	       113	    1200	    10.630
  25.080	       109	    1200	    10.440
  25.100	       119	    1200	    10.909
  25.120	       113	    1200	    10.630
  25.140	       124	    1200	    11.136
  25.160	        94	    1200	     9.695
  25.180	       118	    1200	    10.863
  25.200	       126	    1200	    11.225
  25.220	       120	    1200	    10.954
  25.240	       100	    1200	    10.000
  25.260	       112	    1200	    10.583
  25.280	       126	    1200	    11.225
  25.300	       116	    1200	    10.770
  25.320	       121	    1200	    11.000
  25.340	       115	    1200	    10.724
  25.360	        95	    1200	     9.747
  25.380	       106	    1200	    10.296
  25.400	       108	    1200	    10.392
  25.420	       122	    1200	    11.045
  25.440	       114	    1200	    10.677
  25.460	        89	    1200	     9.434
  25.480	       135	    1200	    11.619
  25.500	       109	    1200	    10.440
  25.520	       113	    1200	    10.630
  25.540	       117	    1200	    10.817
  25.560	       113	    1200	    10.630
  25.580	       120	    1200	    10.954
  25.600	       104	    1200	    10.198
  25.620	       105	    1200	    10.247
  25.640	        92	    1200	     9.592
  25.660	       113	    1200	    10.630
  25.680	       118	    1200	    10.863
  25.700	       100	    1200	    10.000
  25.720	       103	    1200	    10.149
  25.740	        98	    1200	     9.899
  25.760	        86	    1200	     9.274
  25.780	       116	    1200	    10.770
  25.800	        98	    1200	     9.899
  25.820	       111	    1200	    10.536
  25.840	       125	    1200	    11.180
  25.860	        91	    1200	     9.539
  25.880	       133	    1200	    11.533
  25.900	       111	    1200	    10.536
  25.920	        95	    1200	     9.747
  25.940	       118	    1200	    10.863
  25.960	       113	    1200	    10.630
  25.980	        93	    1200	     9.644
  26.000	        81	    1200	     9.000
  26.020	       112	    1200	    10.583
  26.040	       118	    1200	    10.863
  26.060	        92	    1200	     9.592
  26.080	       111	    1200	    10.536
  26.100	       103	    1200	    10.149
  26.120	        99	    1200	     9.950
  26.140	       103	    1200	    10.149
  26.160	       113	    1200	    10.630
  26.180	        91	    1200	     9.539
  26.200	        98	    1200	     9.899
  26.220	        95	    1200	     9.747
  26.240	       102	    1200	    10.100
  26.260	       102	    1200	    10.100
  26.280	        99	    1200	     9.950
  26.300	       110	    1200	    10.488
  26.320	       104	    1200	    10.198
  26.340	       101	    1200	    10.050
  26.360	        78	    1200	     8.832
  26.380	        95	    1200	     9.747
  26.400	        95	    1200	     9.747
  26.420	       111	    1200	    10.536
  26.440	        77	    1200	     8.775
  26.460	       106	    1200	    10.296
  26.480	       100	    1200	    10.000
  26.500	        91	    1200	     9.539
  26.520	       106	    1200	    10.296
  26.540	        94	    1200	     9.695
  26.560	       101	    1200	    10.050
  26.580	        95	    1200	     9.747
  26.600	       102	    1200	    10.100
  26.620	        90	    1200	     9.487
  26.640	       106	    1200	    10.296
  26.660	        95	    1200	     9.747
  26.680	        99	    1200	     9.950
  26.700	       111	    1200	    10.536
  26.720	        94	    1200	     9.695
  26.740	        82	    1200	     9.055
  26.760	       115	    1200	    10.724
  26.780	       100	    1200	    10.000
  26.800	       103	    1200	    10.149
  26.820	        85	    1200	     9.220
  26.840	        88	    1200	     9.381
  26.860	        88	    1200	     9.381
  26.880	       101	    1200	    10.050
  26.900	        97	    1200	     9.849
  26.920	        90	    1200	     9.487
  26.940	        93	    1200	     9.644
  26.960	        87	    1200	     9.327
  26.980	        82	    1200	     9.055
  27.000	        84	    1200	     9.165
  27.020	        87	    1200	     9.327
  27.040	        87	    1200	     9.327
  27.060	        82	    1200	     9.055
  27.080	       101	    1200	    10.050
  27.100	        87	    1200	     9.327
  27.120	        78	    1200	     8.832
  27.140	       101	    1200	    10.050
  27.160	        73	    1200	     8.544
  27.180	        80	    1200	     8.944
  27.200	        77	    1200	     8.775
  27.220	        86	    1200	     9.274
  27.240	        85	    1200	     9.220
  27.260	        88	    1200	     9.381
  27.280	       100	    1200	    10.000
  27.300	        80	    1200	     8.944
  27.320	        87	    1200	     9.327
  27.340	        86	    1200	     9.274
  27.360	        89	    1200	     9.434
  27.380	        79	    1200	     8.888
  27.400	        95	    1200	     9.747
  27.420	        86	    1200	     9.274
  27.440	        68	    1200	     8.246
  27.460	        92	    1200	     9.592
  27.480	        75	    1200	     8.660
  27.500	        75	    1200	     8.660
  27.520	        90	    1200	     9.487
  27.540	       108	    1200	    10.392
  27.560	        83	    1200	     9.110
  27.580	        98	    1200	     9.899
  27.600	        85	    1200	     9.220
  27.620	        87	    1200	     9.327
  27.640	        94	    1200	     9.695
  27.660	        66	    1200	     8.124
  27.680	        66	    1200	     8.124
  27.700	        77	    1200	     8.775
  27.720	        74	    1200	     8.602
  27.740	        85	    1200	     9.220
  27.760	        71	    1200	     8.426
  27.780	        76	    1200	     8.718
  27.800	        88	    1200	     9.381
  27.820	        74	    1200	     8.602
  27.840	        87	    1200	     9.327
  27.860	        76	    1200	     8.718
  27.880	        75	    1200	     8.660
  27.900	        81	    1200	     9.000
  27.920	        93	    1200	     9.644
  27.940	        86	    1200	     9.274
  27.960	        81	    1200	     9.000
  27.980	        85	    1200	     9.220
  28.000	        89	    1200	     9.434
  28.020	        77	    1200	     8.775
  28.040	        73	    1200	     8.544
  28.060	        77	    1200	     8.775
  28.080	        75	    1200	     8.660
  28.100	        79	    1200	     8.888
  28.120	        80	    1200	     8.944
  28.140	        84	    1200	     9.165
  28.160	        82	    1200	     9.055
  28.180	        79	    1200	     8.888
  28.200	        82	    1200	     9.055
  28.220	        81	    1200	     9.000
  28.240	        70	    1200	     8.367
  28.260	       101	    1200	    10.050
  28.280	        77	    1200	     8.775
  28.300	        63	    1200	     7.937
  28.320	        53	    1200	     7.280
  28.340	        85	    1200	     9.220
  28.360	        71	    1200	     8.426
  28.380	        78	    1200	     8.832
  28.400	        80	    1200	     8.944
  28.420	        88	    1200	     9.381
  28.440	        66	    1200	     8.124
  28.460	        74	    1200	     8.602
  28.480	        94	    1200	     9.695
  28.500	        73	    1200	     8.544
  28.520	        77	    1200	     8.775
  28.540	        97	    1200	     9.849
  28.560	        79	    1200	     8.888
  28.580	        98	    1200	     9.899
  28.600	        82	    1200	     9.055
  28.620	        67	    1200	     8.185
  28.640	        83	    1200	     9.110
  28.660	        77	    1200	     8.775
  28.680	        71	    1200	     8.426
  28.700	        73	    1200	     8.544
  28.720	        92	    1200	     9.592
  28.740	        61	    1200	     7.810
  28.760	        73	    1200	     8.544
  28.780	        77	    1200	     8.775
  28.800	       101	    1200	    10.050
  28.820	        79	    1200	     8.888
  28.840	        77	    1200	     8.775
  28.860	        66	    1200	     8.124
  28.880	        81	    1200	     9.000
  28.900	        80	    1200	     8.944
  28.920	        68	    1200	     8.246
  28.940	        67	    1200	     8.185
  28.960	        73	    1200	     8.544
  28.980	        69	    1200	     8.307
  29.000	        67	    1200	     8.185
  29.020	        62	    1200	     7.874
  29.040	        76	    1200	     8.718
  29.060	        87	    1200	     9.327
  29.080	        79	    1200	     8.888
  29.100	        66	    1200	     8.124
  29.120	        66	    1200	     8.124
  29.140	        60	    1200	     7.746
  29.160	        69	    1200	     8.307
  29.180	        66	    1200	     8.124
  29.200	        67	    1200	     8.185
  29.220	        80	    1200	     8.944
  29.240	        73	    1200	     8.544
  29.260	        68	    1200	     8.246
  29.280	        91	    1200	     9.539
  29.300	        81	    1200	     9.000
  29.320	        67	    1200	     8.185
  29.340	        65	    1200	     8.062
  29.360	        64	    1200	     8.000
  29.380	        73	    1200	     8.544
  29.400	        66	    1200	     8.124
  29.420	        67	    1200	     8.185
  29.440	        62	    1200	     7.874
  29.460	        67	    1200	     8.185
  29.480	        67	    1200	     8.185
  29.500	        70	    1200	     8.367
  29.520	        84	    1200	     9.165
  29.540	        87	    1200	     9.327
  29.560	        77	    1200	     8.775
  29.580	        47	    1200	     6.856
  29.600	        73	    1200	     8.544
  29.620	        51	    1200	     7.141
  29.640	        65	    1200	     8.062
  29.660	        68	    1200	     8.246
  29.680	        66	    1200	     8.124
  29.700	        63	    1200	     7.937
  29.720	        73	    1200	     8.544
  29.740	        58	    1200	     7.616
  29.760	        69	    1200	     8.307
  29.780	        73	    1200	     8.544
  29.800	        64	    1200	     8.000
  29.820	        51	    1200	     7.141
  29.840	        76	    1200	     8.718
  29.860	        60	    1200	     7.746
  29.880	        69	    1200	     8.307
  29.900	        59	    1200	     7.681
  29.920	        63	    1200	     7.937
  29.940	        73	    1200	     8.544
  29.960	        81	    1200	     9.000
  29.980	        76	    1200	     8.718
  30.000	        69	    1200	     8.307
  30.020	        60	    1200	     7.746
  30.040	        67	    1200	     8.185
  30.060	        56	    1200	     7.483
  30.080	        70	    1200	     8.367
  30.100	        72	    1200	     8.485
  30.120	        79	    1200	     8.888
  30.140	        62	    1200	     7.874
  30.160	        76	    1200	     8.718
  30.180	        62	    1200	     7.874
  30.200	        71	    1200	     8.426
  30.220	        67	    1200	     8.185
  30.240	        65	    1200	     8.062
  30.260	        59	    1200	     7.681
  30.280	        64	    1200	     8.000
  30.300	        69	    1200	     8.307
  30.320	        65	    1200	     8.062
  30.340	        61	    1200	     7.810
  30.360	        76	    1200	     8.718
  30.380	        59	    1200	     7.681
  30.400	        56	    1200	     7.483
  30.420	        61	    1200	     7.810
  30.440	        67	    1200	     8.185
  30.460	        74	    1200	     8.602
  30.480	        68	    1200	     8.246
  30.500	        63	    1200	     7.937
  30.520	        57	    1200	     7.550
  30.540	        71	    1200	     8.426
  30.560	        73	    1200	     8.544
  30.580	        76	    1200	     8.718
  30.600	        71	    1200	     8.426
  30.620	        79	    1200	     8.888
  30.640	        64	    1200	     8.000
  30.660	        76	    1200	     8.718
  30.680	        68	    1200	     8.246
  30.700	        54	    1200	     7.348
  30.720	        60	    1200	     7.746
  30.740	        58	    1200	     7.616
  30.760	        68	    1200	     8.246
  30.780	        68	    1200	     8.246
  30.800	        62	    1200	     7.874
  30.820	        65	    1200	     8.062
  30.840	        68	    1200	     8.246
  30.860	        77	    1200	     8.775
  30.880	        80	    1200	     8.944
  30.900	        87	    1200	     9.327
  30.920	        74	    1200	     8.602
  30.940	        68	    1200	     8.246
  30.960	        86	    1200	     9.274
  30.980	        81	    1200	     9.000
  31.000	        52	    1200	     7.211
  31.020	        83	    1200	     9.110
  31.040	        79	    1200	     8.888
  31.060	        91	    1200	     9.539
  31.080	        79	    1200	     8.888
  31.100	        65	    1200	     8.062
  31.120	        64	    1200	     8.000
  31.140	        95	    1200	     9.747
  31.160	        71	    1200	     8.426
  31.180	        76	    1200	     8.718
  31.200	        63	    1200	     7.937
  31.220	        78	    1200	     8.832
  31.240	        80	    1200	     8.944
  31.260	        69	    1200	     8.307
  31.280	        74	    1200	     8.602
  31.300	        81	    1200	     9.000
  31.320	        67	    1200	     8.185
  31.340	        63	    1200	     7.937
  31.360	        84	    1200	     9.165
  31.380	        89	    1200	     9.434
  31.400	        89	    1200	     9.434
  31.420	        97	    1200	     9.849
  31.440	        84	    1200	     9.165
  31.460	        67	    1200	     8.185
  31.480	        92	    1200	     9.592
  31.500	        88	    1200	     9.381
  31.520	        95	    1200	     9.747
  31.540	       104	    1200	    10.198
  31.560	        96	    1200	     9.798
  31.580	        84	    1200	     9.165
  31.600	        75	    1200	     8.660
  31.620	        80	    1200	     8.944
  31.640	       100	    1200	    10.000
  31.660	        99	    1200	     9.950
  31.680	        91	    1200	     9.539
  31.700	       108	    1200	    10.392
  31.720	        97	    1200	     9.849
  31.740	        98	    1200	     9.899
  31.760	       105	    1200	    10.247
  31.780	       109	    1200	    10.440
  31.800	       115	    1200	    10.724
  31.820	       117	    1200	    10.817
  31.840	       121	    1200	    11.000
  31.860	       104	    1200	    10.198
  31.880	       118	    1200	    10.863
  31.900	       131	    1200	    11.446
  31.920	       130	    1200	    11.402
  31.940	       148	    1200	    12.166
  31.960	       154	    1200	    12.410
  31.980	       159	    1200	    12.610
  32.000	       184	    1200	    13.565
  32.020	       183	    1200	    13.528
  32.040	       226	    1200	    15.033
  32.060	       250	    1200	    15.811
  32.080	       265	    1200	    16.279
  32.100	       314	    1200	    17.720
  32.120	       371	    1200	    19.261
  32.140	       442	    1200	    21.024
  32.160	       510	    1200	    22.583
  32.180	       624	    1200	    24.980
  32.200	       712	    1200	    26.683
  32.220	       905	    1200	    30.083
  32.240	      1133	    1200	    33.660
  32.260	      1381	    1200	    37.162
  32.280	      1710	    1200	    41.352
  32.300	      2158	    1200	    46.454
  32.320	      2738	    1200	    52.326
  32.340	      3260	    1200	    57.096
  32.360	      3718	    1200	    60.975
  32.380	      4101	    1200	    64.039
  32.400	      4082	    1200	    63.891
  32.420	      4220	    1200	    64.962
  32.440	      4033	    1200	    63.506
  32.460	      3665	    1200	    60.539
  32.480	      3275	    1200	    57.228
  32.500	      2831	    1200	    53.207
  32.520	      2384	    1200	    48.826
  32.540	      1948	    1200	    44.136
  32.560	      1609	    1200	    40.112
  32.580	      1248	    1200	    35.327
  32.600	      1027	    1200	    32.047
  32.620	       774	    1200	    27.821
  32.640	       607	    1200	    24.637
  32.660	       536	    1200	    23.152
  32.680	       406	    1200	    20.149
  32.700	       371	    1200	    19.261
  32.720	       294	    1200	    17.146
  32.740	       227	    1200	    15.067
  32.760	       213	    1200	    14.595
  32.780	       200	    1200	    14.142
  32.800	       169	    1200	    13.000
  32.820	       163	    1200	    12.767
  32.840	       147	    1200	    12.124
  32.860	       126	    1200	    11.225
  32.880	       125	    1200	    11.180
  32.900	       135	    1200	    11.619
  32.920	       125	    1200	    11.180
  32.940	       102	    1200	    10.100
  32.960	       104	    1200	    10.198
  32.980	       119	    1200	    10.909
  33.000	       101	    1200	    10.050
  33.020	       121	    1200	    11.000
  33.040	        92	    1200	     9.592
  33.060	        96	    1200	     9.798
  33.080	        77	    1200	     8.775
  33.100	        85	    1200	     9.220
  33.120	        90	    1200	     9.487
  33.140	        83	    1200	     9.110
  33.160	        86	    1200	     9.274
  33.180	        75	    1200	     8.660
  33.200	        76	    1200	     8.718
  33.220	        71	    1200	     8.426
  33.240	        80	    1200	     8.944
  33.260	        81	    1200	     9.000
  33.280	        69	    1200	     8.307
  33.300	        62	    1200	     7.874
  33.320	        68	    1200	     8.246
  33.340	        90	    1200	     9.487
  33.360	        71	    1200	     8.426
  33.380	        52	    1200	     7.211
  33.400	        60	    1200	     7.746
  33.420	        59	    1200	     7.681
  33.440	        82	    1200	     9.055
  33.460	        68	    1200	     8.246
  33.480	        59	    1200	     7.681
  33.500	        65	    1200	     8.062
  33.520	        70	    1200	     8.367
  33.540	        77	    1200	     8.775
  33.560	        57	    1200	     7.550
  33.580	        68	    1200	     8.246
  33.600	        63	    1200	     7.937
  33.620	        62	    1200	     7.874
  33.640	        64	    1200	     8.000
  33.660	        51	    1200	     7.141
  33.680	        62	    1200	     7.874
  33.700	        72	    1200	     8.485
  33.720	        60	    1200	     7.746
  33.740	        49	    1200	     7.000
  33.760	        50	    1200	     7.071
  33.780	        60	    1200	     7.746
  33.800	        43	    1200	     6.557
  33.820	        60	    1200	     7.746
  33.840	        45	    1200	     6.708
  33.860	        59	    1200	     7.681
  33.880	        53	    1200	     7.280
  33.900	        64	    1200	     8.000
  33.920	        50	    1200	     7.071
  33.940	        57	    1200	     7.550
  33.960	        62	    1200	     7.874
  33.980	        63	    1200	     7.937
  34.000	        61	    1200	     7.810
  34.020	        40	    1200	     6.325
  34.040	        36	    1200	     6.000
  34.060	        39	    1200	     6.245
  34.080	        44	    1200	     6.633
  34.100	        46	    1200	     6.782
  34.120	        65	    1200	     8.062
  34.140	        47	    1200	     6.856
  34.160	        39	    1200	     6.245
  34.180	        50	    1200	     7.071
  34.200	        59	    1200	     7.681
  34.220	        55	    1200	     7.416
  34.240	        45	    1200	     6.708
  34.260	        48	    1200	     6.928
  34.280	        60	    1200	     7.746
  34.300	        47	    1200	     6.856
  34.320	        48	    1200	     6.928
  34.340	        56	    1200	     7.483
  34.360	        33	    1200	     5.745
  34.380	        42	    1200	     6.481
  34.400	        47	    1200	     6.856
  34.420	        43	    1200	     6.557
  34.440	        42	    1200	     6.481
  34.460	        48	    1200	     6.928
  34.480	        46	    1200	     6.782
  34.500	        45	    1200	     6.708
  34.520	        52	    1200	     7.211
  34.540	        44	    1200	     6.633
  34.560	        53	    1200	     7.280
  34.580	        42	    1200	     6.481
  34.600	        38	    1200	     6.164
  34.620	        53	    1200	     7.280
  34.640	        51	    1200	     7.141
  34.660	        50	    1200	     7.071
  34.680	        37	    1200	     6.083
  34.700	        36	    1200	     6.000
  34.720	        38	    1200	     6.164
  34.740	        49	    1200	     7.000
  34.760	        40	    1200	     6.325
  34.780	        48	    1200	     6.928
  34.800	        40	    1200	     6.325
  34.820	        39	    1200	     6.245
  34.840	        37	    1200	     6.083
  34.860	        32	    1200	     5.657
  34.880	        45	    1200	     6.708
  34.900	        41	    1200	     6.403
  34.920	        50	    1200	     7.071
  34.940	        36	    1200	     6.000
  34.960	        40	    1200	     6.325
  34.980	        41	    1200	     6.403
  35.000	        43	    1200	     6.557
  35.020	        46	    1200	     6.782
  35.040	        36	    1200	     6.000
  35.060	        38	    1200	     6.164
  35.080	        41	    1200	     6.403
  35.100	        36	    1200	     6.000
  35.120	        39	    1200	     6.245
  35.140	        44	    1200	     6.633
  35.160	        39	    1200	     6.245
  35.180	        44	    1200	     6.633
  35.200	        36	    1200	     6.000
  35.220	        44	    1200	     6.633
  35.240	        34	    1200	     5.831
  35.260	        38	    1200	     6.164
  35.280	        34	    1200	     5.831
  35.300	        41	    1200	     6.403
  35.320	        37	    1200	     6.083
  35.340	        43	    1200	     6.557
  35.360	        42	    1200	     6.481
  35.380	        41	    1200	     6.403
  35.400	        47	    1200	     6.856
  35.420	        45	    1200	     6.708
  35.440	        41	    1200	     6.403
  35.460	        52	    1200	     7.211
  35.480	        34	    1200	     5.831
  35.500	        39	    1200	     6.245
  35.520	        44	    1200	     6.633
  35.540	        41	    1200	     6.403
  35.560	        36	    1200	     6.000
  35.580	        28	    1200	     5.292
  35.600	        51	    1200	     7.141
  35.620	        32	    1200	     5.657
  35.640	        37	    1200	     6.083
  35.660	        26	    1200	     5.099
  35.680	        49	    1200	     7.000
  35.700	        38	    1200	     6.164
  35.720	        37	    1200	     6.083
  35.740	        34	    1200	     5.831
  35.760	        46	    1200	     6.782
  35.780	        45	    1200	     6.708
  35.800	        35	    1200	     5.916
  35.820	        41	    1200	     6.403
  35.840	        35	    1200	     5.916
  35.860	        42	    1200	     6.481
  35.880	        40	    1200	     6.325
  35.900	        37	    1200	     6.083
  35.920	        40	    1200	     6.325
  35.940	        36	    1200	     6.000
  35.960	        41	    1200	     6.403
  35.980	        37	    1200	     6.083
  36.000	        23	    1200	     4.796
  36.020	        34	    1200	     5.831
  36.040	        39	    1200	     6.245
  36.060	        32	    1200	     5.657
  36.080	        43	    1200	     6.557
  36.100	        40	    1200	     6.325
  36.120	        44	    1200	     6.633
  36.140	        49	    1200	     7.000
  36.160	        45	    1200	     6.708
  36.180	        34	    1200	     5.831
  36.200	        30	    1200	     5.477
  36.220	        38	    1200	     6.164
  36.240	        34	    1200	     5.831
  36.260	        43	    1200	     6.557
  36.280	        37	    1200	     6.083
  36.300	        39	    1200	     6.245
  36.320	        31	    1200	     5.568
  36.340	        26	    1200	     5.099
  36.360	        33	    1200	     5.745
  36.380	        29	    1200	     5.385
  36.400	        35	    1200	     5.916
  36.420	        31	    1200	     5.568
  36.440	        34	    1200	     5.831
  36.460	        36	    1200	     6.000
  36.480	        36	    1200	     6.000
  36.500	        44	    1200	     6.633
  36.520	        27	    1200	     5.196
  36.540	        42	    1200	     6.481
  36.560	        27	    1200	     5.196
  36.580	        26	    1200	     5.099
  36.600	        39	    1200	     6.245
  36.620	        22	    1200	     4.690
  36.640	        34	    1200	     5.831
  36.660	        42	    1200	     6.481
  36.680	        38	    1200	     6.164
  36.700	        34	    1200	     5.831
  36.720	        50	    1200	     7.071
  36.740	        38	    1200	     6.164
  36.760	        28	    1200	     5.292
  36.780	        28	    1200	     5.292
  36.800	        34	    1200	     5.831
  36.820	        28	    1200	     5.292
  36.840	        32	    1200	     5.657
  36.860	        20	    1200	     4.472
  36.880	        26	    1200	     5.099
  36.900	        29	    1200	     5.385
  36.920	        38	    1200	     6.164
  36.940	        35	    1200	     5.916
  36.960	        41	    1200	     6.403
  36.980	        38	    1200	     6.164
  37.000	        28	    1200	     5.292
  37.020	        26	    1200	     5.099
  37.040	        40	    1200	     6.325
  37.060	        39	    1200	     6.245
  37.080	        33	    1200	     5.745
  37.100	        38	    1200	     6.164
  37.120	        34	    1200	     5.831
  37.140	        33	    1200	     5.745
  37.160	        35	    1200	     5.916
  37.180	        36	    1200	     6.000
  37.200	        36	    1200	     6.000
  37.220	        35	    1200	     5.916
  37.240	        26	    1200	     5.099
  37.260	        23	    1200	     4.796
  37.280	        24	    1200	     4.899
  37.300	        47	    1200	     6.856
  37.320	        19	    1200	     4.359
  37.340	        41	    1200	     6.403
  37.360	        40	    1200	     6.325
  37.380	        36	    1200	     6.000
  37.400	        25	    1200	     5.000
  37.420	        33	    1200	     5.745
  37.440	        29	    1200	     5.385
  37.460	        20	    1200	     4.472
  37.480	        39	    1200	     6.245
  37.500	        33	    1200	     5.745
  37.520	        22	    1200	     4.690
  37.540	        33	    1200	     5.745
  37.560	        35	    1200	     5.916
  37.580	        37	    1200	     6.083
  37.600	        36	    1200	     6.000
  37.620	        32	    1200	     5.657
  37.640	        34	    1200	     5.831
  37.660	        37	    1200	     6.083
  37.680	        24	    1200	     4.899
  37.700	        28	    1200	     5.292
  37.720	        30	    1200	     5.477
  37.740	        31	    1200	     5.568
  37.760	        22	    1200	     4.690
  37.780	        38	    1200	     6.164
  37.800	        27	    1200	     5.196
  37.820	        32	    1200	     5.657
  37.840	        30	    1200	     5.477
  37.860	        32	    1200	     5.657
  37.880	        56	    1200	     7.483
  37.900	        34	    1200	     5.831
  37.920	        33	    1200	     5.745
  37.940	        32	    1200	     5.657
  37.960	        29	    1200	     5.385
  37.980	        28	    1200	     5.292
  38.000	        32	    1200	     5.657
  38.020	        29	    1200	     5.385
  38.040	        25	    1200	     5.000
  38.060	        48	    1200	     6.928
  38.080	        40	    1200	     6.325
  38.100	        44	    1200	     6.633
  38.120	        35	    1200	     5.916
  38.140	        34	    1200	     5.831
  38.160	        26	    1200	     5.099
  38.180	        32	    1200	     5.657
  38.200	        25	    1200	     5.000
  38.220	        29	    1200	     5.385
  38.240	        29	    1200	     5.385
  38.260	        30	    1200	     5.477
  38.280	        34	    1200	     5.831
  38.300	        34	    1200	     5.831
  38.320	        39	    1200	     6.245
  38.340	        24	    1200	     4.899
  38.360	        34	    1200	     5.831
  38.380	        29	    1200	     5.385
  38.400	        34	    1200	     5.831
  38.420	        29	    1200	     5.385
  38.440	        40	    1200	     6.325
  38.460	        42	    1200	     6.481
  38.480	        42	    1200	     6.481
  38.500	        34	    1200	     5.831
  38.520	        42	    1200	     6.481
  38.540	        31	    1200	     5.568
  38.560	        38	    1200	     6.164
  38.580	        34	    1200	     5.831
  38.600	        36	    1200	     6.000
  38.620	        44	    1200	     6.633
  38.640	        40	    1200	     6.325
  38.660	        44	    1200	     6.633
  38.680	        31	    1200	     5.568
  38.700	        26	    1200	     5.099
  38.720	        32	    1200	     5.657
  38.740	        30	    1200	     5.477
  38.760	        34	    1200	     5.831
  38.780	        45	    1200	     6.708
  38.800	        32	    1200	     5.657
  38.820	        25	    1200	     5.000
  38.840	        40	    1200	     6.325
  38.860	        35	    1200	     5.916
  38.880	        38	    1200	     6.164
  38.900	        43	    1200	     6.557
  38.920	        28	    1200	     5.292
  38.940	        40	    1200	     6.325
  38.960	        38	    1200	     6.164
  38.980	        27	    1200	     5.196
  39.000	        40	    1200	     6.325
  39.020	        49	    1200	     7.000
  39.040	        48	    1200	     6.928
  39.060	        27	    1200	     5.196
  39.080	        30	    1200	     5.477
  39.100	        39	    1200	     6.245
  39.120	        33	    1200	     5.745
  39.140	        34	    1200	     5.831
  39.160	        31	    1200	     5.568
  39.180	        36	    1200	     6.000
  39.200	        47	    1200	     6.856
  39.220	        49	    1200	     7.000
  39.240	        35	    1200	     5.916
  39.260	        36	    1200	     6.000
  39.280	        28	    1200	     5.292
  39.300	        38	    1200	     6.164
  39.320	        44	    1200	     6.633
  39.340	        49	    1200	     7.000
  39.360	        45	    1200	     6.708
  39.380	        35	    1200	     5.916
  39.400	        43	    1200	     6.557
  39.420	        43	    1200	     6.557
  39.440	        53	    1200	     7.280
  39.460	        49	    1200	     7.000
  39.480	        48	    1200	     6.928
  39.500	        36	    1200	     6.000
  39.520	        41	    1200	     6.403
  39.540	        39	    1200	     6.245
  39.560	        51	    1200	     7.141
  39.580	        44	    1200	     6.633
  39.600	        48	    1200	     6.928
  39.620	        49	    1200	     7.000
  39.640	        52	    1200	     7.211
  39.660	        63	    1200	     7.937
  39.680	        81	    1200	     9.000
  39.700	        72	    1200	     8.485
  39.720	        84	    1200	     9.165
  39.740	       102	    1200	    10.100
  39.760	       118	    1200	    10.863
  39.780	       120	    1200	    10.954
  39.800	       138	    1200	    11.747
  39.820	       167	    1200	    12.923
  39.840	       184	    1200	    13.565
  39.860	       222	    1200	    14.900
  39.880	       266	    1200	    16.310
  39.900	       321	    1200	    17.916
  39.920	       429	    1200	    20.712
  39.940	       504	    1200	    22.450
  39.960	       577	    1200	    24.021
  39.980	       646	    1200	    25.417
  40.000	       669	    1200	    25.865
  40.020	       739	    1200	    27.185
  40.040	       688	    1200	    26.230
  40.060	       677	    1200	    26.019
  40.080	       634	    1200	    25.179
  40.100	       548	    1200	    23.409
  40.120	       517	    1200	    22.738
  40.140	       454	    1200	    21.307
  40.160	       381	    1200	    19.519
  40.180	       297	    1200	    17.234
  40.200	       242	    1200	    15.556
  40.220	       209	    1200	    14.457
  40.240	       167	    1200	    12.923
  40.260	       136	    1200	    11.662
  40.280	       121	    1200	    11.000
  40.300	       105	    1200	    10.247
  40.320	        84	    1200	     9.165
  40.340	        70	    1200	     8.367
  40.360	        60	    1200	     7.746
  40.380	        57	    1200	     7.550
  40.400	        68	    1200	     8.246
  40.420	        51	    1200	     7.141
  40.440	        59	    1200	     7.681
  40.460	        40	    1200	     6.325
  40.480	        46	    1200	     6.782
  40.500	        46	    1200	     6.782
  40.520	        61	    1200	     7.810
  40.540	        37	    1200	     6.083
  40.560	        42	    1200	     6.481
  40.580	        42	    1200	     6.481
  40.600	        43	    1200	     6.557
  40.620	        29	    1200	     5.385
  40.640	        31	    1200	     5.568
  40.660	        47	    1200	     6.856
  40.680	        37	    1200	     6.083
  40.700	        37	    1200	     6.083
  40.720	        34	    1200	     5.831
  40.740	        40	    1200	     6.325
  40.760	        37	    1200	     6.083
  40.780	        46	    1200	     6.782
  40.800	        28	    1200	     5.292
  40.820	        35	    1200	     5.916
  40.840	        25	    1200	     5.000
  40.860	        35	    1200	     5.916
  40.880	        35	    1200	     5.916
  40.900	        31	    1200	     5.568
  40.920	        30	    1200	     5.477
  40.940	        34	    1200	     5.831
  40.960	        32	    1200	     5.657
  40.980	        32	    1200	     5.657
  41.000	        28	    1200	     5.292
  41.020	        45	    1200	     6.708
  41.040	        38	    1200	     6.164
  41.060	        37	    1200	     6.083
  41.080	        34	    1200	     5.831
  41.100	        25	    1200	     5.000
  41.120	        25	    1200	     5.000
  41.140	        37	    1200	     6.083
  41.160	        30	    1200	     5.477
  41.180	        31	    1200	     5.568
  41.200	        26	    1200	     5.099
  41.220	        30	    1200	     5.477
  41.240	        26	    1200	     5.099
  41.260	        23	    1200	     4.796
  41.280	        30	    1200	     5.477
  41.300	        36	    1200	     6.000
  41.320	        37	    1200	     6.083
  41.340	        37	    1200	     6.083
  41.360	        31	    1200	     5.568
  41.380	        30	    1200	     5.477
  41.400	        30	    1200	     5.477
  41.420	        38	    1200	     6.164
  41.440	        35	    1200	     5.916
  41.460	        32	    1200	     5.657
  41.480	        26	    1200	     5.099
  41.500	        33	    1200	     5.745
  41.520	        24	    1200	     4.899
  41.540	        28	    1200	     5.292
  41.560	        31	    1200	     5.568
  41.580	        26	    1200	     5.099
  41.600	        23	    1200	     4.796
  41.620	        21	    1200	     4.583
  41.640	        34	    1200	     5.831
  41.660	        46	    1200	     6.782
  41.680	        32	    1200	     5.657
  41.700	        22	    1200	     4.690
  41.720	        32	    1200	     5.657
  41.740	        27	    1200	     5.196
  41.760	        23	    1200	     4.796
  41.780	        40	    1200	     6.325
  41.800	        33	    1200	     5.745
  41.820	        37	    1200	     6.083
  41.840	        31	    1200	     5.568
  41.860	        24	    1200	     4.899
  41.880	        37	    1200	     6.083
  41.900	        33	    1200	     5.745
  41.920	        31	    1200	     5.568
  41.940	        38	    1200	     6.164
  41.960	        29	    1200	     5.385
  41.980	        29	    1200	     5.385
  42.000	        30	    1200	     5.477
  42.020	        34	    1200	     5.831
  42.040	        51	    1200	     7.141
  42.060	        44	    1200	     6.633
  42.080	        27	    1200	     5.196
  42.100	        25	    1200	     5.000
  42.120	        20	    1200	     4.472
  42.140	        23	    1200	     4.796
  42.160	        35	    1200	     5.916
  42.180	        35	    1200	     5.916
  42.200	        22	    1200	     4.690
  42.220	        31	    1200	     5.568
  42.240	        28	    1200	     5.292
  42.260	        35	    1200	     5.916
  42.280	        30	    1200	     5.477
  42.300	        34	    1200	     5.831
  42.320	        26	    1200	     5.099
  42.340	        32	    1200	     5.657
  42.360	        38	    1200	     6.164
  42.380	        29	    1200	     5.385
  42.400	        19	    1200	     4.359
  42.420	        44	    1200	     6.633
  42.440	        15	    1200	     3.873
  42.460	        27	    1200	     5.196
  42.480	        31	    1200	     5.568
  42.500	        38	    1200	     6.164
  42.520	        25	    1200	     5.000
  42.540	        31	    1200	     5.568
  42.560	        24	    1200	     4.899
  42.580	        32	    1200	     5.657
  42.600	        34	    1200	     5.831
  42.620	        33	    1200	     5.745
  42.640	        32	    1200	     5.657
  42.660	        33	    1200	     5.745
  42.680	        25	    1200	     5.000
  42.700	        35	    1200	     5.916
  42.720	        45	    1200	     6.708
  42.740	        35	    1200	     5.916
  42.760	        27	    1200	     5.196
  42.780	        28	    1200	     5.292
  42.800	        20	    1200	     4.472
  42.820	        26	    1200	     5.099
  42.840	        32	    1200	     5.657
  42.860	        40	    1200	     6.325
  42.880	        39	    1200	     6.245
  42.900	        27	    1200	     5.196
  42.920	        29	    1200	     5.385
  42.940	        28	    1200	     5.292
  42.960	        34	    1200	     5.831
  42.980	        20	    1200	     4.472
  43.000	        28	    1200	     5.292
  43.020	        25	    1200	     5.000
  43.040	        35	    1200	     5.916
  43.060	        29	    1200	     5.385
  43.080	        28	    1200	     5.292
  43.100	        32	    1200	     5.657
  43.120	        28	    1200	     5.292
  43.140	        38	    1200	     6.164
  43.160	        29	    1200	     5.385
  43.180	        32	    1200	     5.657
  43.200	        39	    1200	     6.245
  43.220	        35	    1200	     5.916
  43.240	        27	    1200	     5.196
  43.260	        37	    1200	     6.083
  43.280	        33	    1200	     5.745
  43.300	        33	    1200	     5.745
  43.320	        32	    1200	     5.657
  43.340	        23	    1200	     4.796
  43.360	        34	    1200	     5.831
  43.380	        28	    1200	     5.292
  43.400	        32	    1200	     5.657
  43.420	        32	    1200	     5.657
  43.440	        25	    1200	     5.000
  43.460	        30	    1200	     5.477
  43.480	        31	    1200	     5.568
  43.500	        25	    1200	     5.000
  43.520	        33	    1200	     5.745
  43.540	        30	    1200	     5.477
  43.560	        30	    1200	     5.477
  43.580	        29	    1200	     5.385
  43.600	        27	    1200	     5.196
  43.620	        34	    1200	     5.831
  43.640	        27	    1200	     5.196
  43.660	        39	    1200	     6.245
  43.680	        27	    1200	     5.196
  43.700	        37	    1200	     6.083
  43.720	        26	    1200	     5.099
  43.740	        39	    1200	     6.245
  43.760	        32	    1200	     5.657
  43.780	        25	    1200	     5.000
  43.800	        31	    1200	     5.568
  43.820	        45	    1200	     6.708
  43.840	        26	    1200	     5.099
  43.860	        31	    1200	     5.568
  43.880	        29	    1200	     5.385
  43.900	        34	    1200	     5.831
  43.920	        35	    1200	     5.916
  43.940	        31	    1200	     5.568
  43.960	        31	    1200	     5.568
  43.980	        36	    1200	     6.000
  44.000	        26	    1200	     5.099
  44.020	        29	    1200	     5.385
  44.040	        26	    1200	     5.099
  44.060	        30	    1200	     5.477
  44.080	        17	    1200	     4.123
  44.100	        23	    1200	     4.796
  44.120	        35	    1200	     5.916
  44.140	        26	    1200	     5.099
  44.160	        29	    1200	     5.385
  44.180	        23	    1200	     4.796
  44.200	        30	    1200	     5.477
  44.220	        32	    1200	     5.657
  44.240	        38	    1200	     6.164
  44.260	        29	    1200	     5.385
  44.280	        26	    1200	     5.099
  44.300	        24	    1200	     4.899
  44.320	        41	    1200	     6.403
  44.340	        30	    1200	     5.477
  44.360	        31	    1200	     5.568
  44.380	        24	    1200	     4.899
  44.400	        36	    1200	     6.000
  44.420	        38	    1200	     6.164
  44.440	        28	    1200	     5.292
  44.460	        33	    1200	     5.745
  44.480	        33	    1200	     5.745
  44.500	        40	    1200	     6.325
  44.520	        25	    1200	     5.000
  44.540	        32	    1200	     5.657
  44.560	        41	    1200	     6.403
  44.580	        26	    1200	     5.099
  44.600	        35	    1200	     5.916
  44.620	        29	    1200	     5.385
  44.640	        37	    1200	     6.083
  44.660	        25	    1200	     5.000
  44.680	        32	    1200	     5.657
  44.700	        28	    1200	     5.292
  44.720	        35	    1200	     5.916
  44.740	        34	    1200	     5.831
  44.760	        40	    1200	     6.325
  44.780	        36	    1200	     6.000
  44.800	        32	    1200	     5.657
  44.820	        29	    1200	     5.385
  44.840	        36	    1200	     6.000
  44.860	        28	    1200	     5.292
  44.880	        34	    1200	     5.831
  44.900	        44	    1200	     6.633
  44.920	        32	    1200	     5.657
  44.940	        34	    1200	     5.831
  44.960	        27	    1200	     5.196
  44.980	        33	    1200	     5.745
  45.000	        27	    1200	     5.196
  45.020	        33	    1200	     5.745
  45.040	        36	    1200	     6.000
  45.060	        29	    1200	     5.385
  45.080	        35	    1200	     5.916
  45.100	        44	    1200	     6.633
  45.120	        33	    1200	     5.745
  45.140	        37	    1200	     6.083
  45.160	        38	    1200	     6.164
  45.180	        32	    1200	     5.657
  45.200	        38	    1200	     6.164
  45.220	        29	    1200	     5.385
  45.240	        34	    1200	     5.831
  45.260	        41	    1200	     6.403
  45.280	        32	    1200	     5.657
  45.300	        33	    1200	     5.745
  45.320	        44	    1200	     6.633
  45.340	        32	    1200	     5.657
  45.360	        39	    1200	     6.245
  45.380	        28	    1200	     5.292
  45.400	        34	    1200	     5.831
  45.420	        32	    1200	     5.657
  45.440	        30	    1200	     5.477
  45.460	        41	    1200	     6.403
  45.480	        45	    1200	     6.708
  45.500	        42	    1200	     6.481
  45.520	        38	    1200	     6.164
  45.540	        43	    1200	     6.557
  45.560	        36	    1200	     6.000
  45.580	        28	    1200	     5.292
  45.600	        38	    1200	     6.164
  45.620	        39	    1200	     6.245
  45.640	        41	    1200	     6.403
  45.660	        53	    1200	     7.280
  45.680	        38	    1200	     6.164
  45.700	        37	    1200	     6.083
  45.720	        39	    1200	     6.245
  45.740	        48	    1200	     6.928
  45.760	        46	    1200	     6.782
  45.780	        48	    1200	     6.928
  45.800	        41	    1200	     6.403
  45.820	        46	    1200	     6.782
  45.840	        55	    1200	     7.416
  45.860	        45	    1200	     6.708
  45.880	        73	    1200	     8.544
  45.900	        59	    1200	     7.681
  45.920	        58	    1200	     7.616
  45.940	        70	    1200	     8.367
  45.960	        64	    1200	     8.000
  45.980	        70	    1200	     8.367
  46.000	        49	    1200	     7.000
  46.020	        89	    1200	     9.434
  46.040	        75	    1200	     8.660
  46.060	        74	    1200	     8.602
  46.080	        80	    1200	     8.944
  46.100	        79	    1200	     8.888
  46.120	        94	    1200	     9.695
  46.140	       104	    1200	    10.198
  46.160	       121	    1200	    11.000
  46.180	       130	    1200	    11.402
  46.200	       145	    1200	    12.042
  46.220	       140	    1200	    11.832
  46.240	       168	    1200	    12.961
  46.260	       189	    1200	    13.748
  46.280	       230	    1200	    15.166
  46.300	       233	    1200	    15.264
  46.320	       275	    1200	    16.583
  46.340	       297	    1200	    17.234
  46.360	       330	    1200	    18.166
  46.380	       383	    1200	    19.570
  46.400	       444	    1200	    21.071
  46.420	       567	    1200	    23.812
  46.440	       627	    1200	    25.040
  46.460	       803	    1200	    28.337
  46.480	       908	    1200	    30.133
  46.500	      1113	    1200	    33.362
  46.520	      1258	    1200	    35.468
  46.540	      1383	    1200	    37.189
  46.560	      1494	    1200	    38.652
  46.580	      1455	    1200	    38.144
  46.600	      1456	    1200	    38.158
  46.620	      1377	    1200	    37.108
  46.640	      1322	    1200	    36.359
  46.660	      1202	    1200	    34.670
  46.680	      1138	    1200	    33.734
  46.700	      1023	    1200	    31.984
  46.720	       919	    1200	    30.315
  46.740	       761	    1200	    27.586
  46.760	       676	    1200	    26.000
  46.780	       597	    1200	    24.434
  46.800	       573	    1200	    23.937
  46.820	       443	    1200	    21.048
  46.840	       378	    1200	    19.442
  46.860	       343	    1200	    18.520
  46.880	       284	    1200	    16.852
  46.900	       248	    1200	    15.748
  46.920	       206	    1200	    14.353
  46.940	       183	    1200	    13.528
  46.960	       163	    1200	    12.767
  46.980	       131	    1200	    11.446
  47.000	       131	    1200	    11.446
  47.020	       130	    1200	    11.402
  47.040	       109	    1200	    10.440
  47.060	        93	    1200	     9.644
  47.080	        99	    1200	     9.950
  47.100	        87	    1200	     9.327
  47.120	        73	    1200	     8.544
  47.140	        82	    1200	     9.055
  47.160	        52	    1200	     7.211
  47.180	        66	    1200	     8.124
  47.200	        59	    1200	     7.681
  47.220	        61	    1200	     7.810
  47.240	        60	    1200	     7.746
  47.260	        45	    1200	     6.708
  47.280	        70	    1200	     8.367
  47.300	        53	    1200	     7.280
  47.320	        49	    1200	     7.000
  47.340	        55	    1200	     7.416
  47.360	        49	    1200	     7.000
  47.380	        44	    1200	     6.633
  47.400	        45	    1200	     6.708
  47.420	        39	    1200	     6.245
  47.440	        40	    1200	     6.325
  47.460	        42	    1200	     6.481
  47.480	        34	    1200	     5.831
  47.500	        41	    1200	     6.403
  47.520	        34	    1200	     5.831
  47.540	        29	    1200	     5.385
  47.560	        40	    1200	     6.325
  47.580	        27	    1200	     5.196
  47.600	        45	    1200	     6.708
  47.620	        33	    1200	     5.745
  47.640	        38	    1200	     6.164
  47.660	        30	    1200	     5.477
  47.680	        44	    1200	     6.633
  47.700	        36	    1200	     6.000
  47.720	        31	    1200	     5.568
  47.740	        43	    1200	     6.557
  47.760	        37	    1200	     6.083
  47.780	        30	    1200	     5.477
  47.800	        37	    1200	     6.083
  47.820	        24	    1200	     4.899
  47.840	        32	    1200	     5.657
  47.860	        34	    1200	     5.831
  47.880	        37	    1200	     6.083
  47.900	        33	    1200	     5.745
  47.920	        30	    1200	     5.477
  47.940	        29	    1200	     5.385
  47.960	        30	    1200	     5.477
  47.980	        35	    1200	     5.916
  48.000	        30	    1200	     5.477
  48.020	        26	    1200	     5.099
  48.040	        39	    1200	     6.245
  48.060	        26	    1200	     5.099
  48.080	        26	    1200	     5.099
  48.100	        26	    1200	     5.099
  48.120	        37	    1200	     6.083
  48.140	        28	    1200	     5.292
  48.160	        31	    1200	     5.568
  48.180	        34	    1200	     5.831
  48.200	        27	    1200	     5.196
  48.220	        25	    1200	     5.000
  48.240	        32	    1200	     5.657
  48.260	        24	    1200	     4.899
  48.280	        25	    1200	     5.000
  48.300	        28	    1200	     5.292
  48.320	        30	    1200	     5.477
  48.340	        27	    1200	     5.196
  48.360	        22	    1200	     4.690
  48.380	        28	    1200	     5.292
  48.400	        26	    1200	     5.099
  48.420	        37	    1200	     6.083
  48.440	        25	    1200	     5.000
  48.460	        22	    1200	     4.690
  48.480	        29	    1200	     5.385
  48.500	        23	    1200	     4.796
  48.520	        37	    1200	     6.083
  48.540	        23	    1200	     4.796
  48.560	        32	    1200	     5.657
  48.580	        39	    1200	     6.245
  48.600	        33	    1200	     5.745
  48.620	        21	    1200	     4.583
  48.640	        25	    1200	     5.000
  48.660	        34	    1200	     5.831
  48.680	        20	    1200	     4.472
  48.700	        33	    1200	     5.745
  48.720	        22	    1200	     4.690
  48.740	        32	    1200	     5.657
  48.760	        24	    1200	     4.899
  48.780	        32	    1200	     5.657
  48.800	        34	    1200	     5.831
  48.820	        31	    1200	     5.568
  48.840	        23	    1200	     4.796
  48.860	        22	    1200	     4.690
  48.880	        31	    1200	     5.568
  48.900	        28	    1200	     5.292
  48.920	        31	    1200	     5.568
  48.940	        27	    1200	     5.196
  48.960	        21	    1200	     4.583
  48.980	        21	    1200	     4.583
  49.000	        24	    1200	     4.899
  49.020	        30	    1200	     5.477
  49.040	        31	    1200	     5.568
  49.060	        27	    1200	     5.196
  49.080	        31	    1200	     5.568
  49.100	        23	    1200	     4.796
  49.120	        25	    1200	     5.000
  49.140	        18	    1200	     4.243
  49.160	        25	    1200	     5.000
  49.180	        24	    1200	     4.899
  49.200	        25	    1200	     5.000
  49.220	        29	    1200	     5.385
  49.240	        29	    1200	     5.385
  49.260	        33	    1200	     5.745
  49.280	        17	    1200	     4.123
  49.300	        25	    1200	     5.000
  49.320	        29	    1200	     5.385
  49.340	        29	    1200	     5.385
  49.360	        29	    1200	     5.385
  49.380	        17	    1200	     4.123
  49.400	        28	    1200	     5.292
  49.420	        24	    1200	     4.899
  49.440	        28	    1200	     5.292
  49.460	        39	    1200	     6.245
  49.480	        12	    1200	     3.464
  49.500	        21	    1200	     4.583
  49.520	        31	    1200	     5.568
  49.540	        29	    1200	     5.385
  49.560	        26	    1200	     5.099
  49.580	        18	    1200	     4.243
  49.600	        34	    1200	     5.831
  49.620	        19	    1200	     4.359
  49.640	        27	    1200	     5.196
  49.660	        20	    1200	     4.472
  49.680	        28	    1200	     5.292
  49.700	        23	    1200	     4.796
  49.720	        22	    1200	     4.690
  49.740	        33	    1200	     5.745
  49.760	        23	    1200	     4.796
  49.780	        23	    1200	     4.796
  49.800	        33	    1200	     5.745
  49.820	        27	    1200	     5.196
  49.840	        36	    1200	     6.000
  49.860	        20	    1200	     4.472
  49.880	        22	    1200	     4.690
  49.900	        29	    1200	     5.385
  49.920	        23	    1200	     4.796
  49.940	        25	    1200	     5.000
  49.960	        27	    1200	     5.196
  49.980	        19	    1200	     4.359
  50.000	        22	    1200	     4.690
  50.020	        25	    1200	     5.000
  50.040	        21	    1200	     4.583
  50.060	        25	    1200	     5.000
  50.080	        29	    1200	     5.385
  50.100	        27	    1200	     5.196
  50.120	        26	    1200	     5.099
  50.140	        30	    1200	     5.477
  50.160	        15	    1200	     3.873
  50.180	        19	    1200	     4.359
  50.200	        21	    1200	     4.583
  50.220	        22	    1200	     4.690
  50.240	        23	    1200	     4.796
  50.260	        19	    1200	     4.359
  50.280	        31	    1200	     5.568
  50.300	        25	    1200	     5.000
  50.320	        22	    1200	     4.690
  50.340	        27	    1200	     5.196
  50.360	        24	    1200	     4.899
  50.380	        25	    1200	     5.000
  50.400	        13	    1200	     3.606
  50.420	        23	    1200	     4.796
  50.440	        23	    1200	     4.796
  50.460	        14	    1200	     3.742
  50.480	        21	    1200	     4.583
  50.500	        29	    1200	     5.385
  50.520	        21	    1200	     4.583
  50.540	        35	    1200	     5.916
  50.560	        18	    1200	     4.243
  50.580	        33	    1200	     5.745
  50.600	        21	    1200	     4.583
  50.620	        14	    1200	     3.742
  50.640	        24	    1200	     4.899
  50.660	        22	    1200	     4.690
  50.680	        21	    1200	     4.583
  50.700	        16	    1200	     4.000
  50.720	        26	    1200	     5.099
  50.740	        22	    1200	     4.690
  50.760	        31	    1200	     5.568
  50.780	        27	    1200	     5.196
  50.800	        21	    1200	     4.583
  50.820	        25	    1200	     5.000
  50.840	        26	    1200	     5.099
  50.860	        23	    1200	     4.796
  50.880	        20	    1200	     4.472
  50.900	        16	    1200	     4.000
  50.920	        28	    1200	     5.292
  50.940	        16	    1200	     4.000
  50.960	        22	    1200	     4.690
  50.980	        29	    1200	     5.385
  51.000	        27	    1200	     5.196
  51.020	        30	    1200	     5.477
  51.040	        22	    1200	     4.690
  51.060	        22	    1200	     4.690
  51.080	        15	    1200	     3.873
  51.100	        26	    1200	     5.099
  51.120	        21	    1200	     4.583
  51.140	        19	    1200	     4.359
  51.160	        25	    1200	     5.000
  51.180	        17	    1200	     4.123
  51.200	        29	    1200	     5.385
  51.220	        30	    1200	     5.477
  51.240	        19	    1200	     4.359
  51.260	        19	    1200	     4.359
  51.280	        22	    1200	     4.690
  51.300	        26	    1200	     5.099
  51.320	        23	    1200	     4.796
  51.340	        30	    1200	     5.477
  51.360	        29	    1200	     5.385
  51.380	        33	    1200	     5.745
  51.400	        17	    1200	     4.123
  51.420	        25	    1200	     5.000
  51.440	        22	    1200	     4.690
  51.460	        24	    1200	     4.899
  51.480	        22	    1200	     4.690
  51.500	        21	    1200	     4.583
  51.520	        24	    1200	     4.899
  51.540	        27	    1200	     5.196
  51.560	        17	    1200	     4.123
  51.580	        12	    1200	     3.464
  51.600	        15	    1200	     3.873
  51.620	        25	    1200	     5.000
  51.640	        29	    1200	     5.385
  51.660	        24	    1200	     4.899
  51.680	        24	    1200	     4.899
  51.700	        28	    1200	     5.292
  51.720	        18	    1200	     4.243
  51.740	        27	    1200	     5.196
  51.760	        28	    1200	     5.292
  51.780	        26	    1200	     5.099
  51.800	        21	    1200	     4.583
  51.820	        26	    1200	     5.099
  51.840	        27	    1200	     5.196
  51.860	        27	    1200	     5.196
  51.880	        26	    1200	     5.099
  51.900	        27	    1200	     5.196
  51.920	        33	    1200	     5.745
  51.940	        16	    1200	     4.000
  51.960	        15	    1200	     3.873
  51.980	        35	    1200	     5.916
  52.000	        17	    1200	     4.123
  52.020	        36	    1200	     6.000
  52.040	        25	    1200	     5.000
  52.060	        34	    1200	     5.831
  52.080	        29	    1200	     5.385
  52.100	        25	    1200	     5.000
  52.120	        25	    1200	     5.000
  52.140	        26	    1200	     5.099
  52.160	        36	    1200	     6.000
  52.180	        32	    1200	     5.657
  52.200	        28	    1200	     5.292
  52.220	        38	    1200	     6.164
  52.240	        26	    1200	     5.099
  52.260	        32	    1200	     5.657
  52.280	        35	    1200	     5.916
  52.300	        37	    1200	     6.083
  52.320	        45	    1200	     6.708
  52.340	        48	    1200	     6.928
  52.360	        61	    1200	     7.810
  52.380	        50	    1200	     7.071
  52.400	        74	    1200	     8.602
  52.420	        51	    1200	     7.141
  52.440	        60	    1200	     7.746
  52.460	        72	    1200	     8.485
  52.480	        64	    1200	     8.000
  52.500	        71	    1200	     8.426
  52.520	        73	    1200	     8.544
  52.540	        73	    1200	     8.544
  52.560	        58	    1200	     7.616
  52.580	        71	    1200	     8.426
  52.600	        63	    1200	     7.937
  52.620	        54	    1200	     7.348
  52.640	        57	    1200	     7.550
  52.660	        48	    1200	     6.928
  52.680	        49	    1200	     7.000
  52.700	        36	    1200	     6.000
  52.720	        46	    1200	     6.782
  52.740	        37	    1200	     6.083
  52.760	        36	    1200	     6.000
  52.780	        34	    1200	     5.831
  52.800	        37	    1200	     6.083
  52.820	        26	    1200	     5.099
  52.840	        40	    1200	     6.325
  52.860	        30	    1200	     5.477
  52.880	        31	    1200	     5.568
  52.900	        31	    1200	     5.568
  52.920	        36	    1200	     6.000
  52.940	        22	    1200	     4.690
  52.960	        25	    1200	     5.000
  52.980	        31	    1200	     5.568
  53.000	        28	    1200	     5.292
  53.020	        32	    1200	     5.657
  53.040	        24	    1200	     4.899
  53.060	        22	    1200	     4.690
  53.080	        20	    1200	     4.472
  53.100	        23	    1200	     4.796
  53.120	        23	    1200	     4.796
  53.140	        27	    1200	     5.196
  53.160	        24	    1200	     4.899
  53.180	        26	    1200	     5.099
  53.200	        25	    1200	     5.000
  53.220	        18	    1200	     4.243
  53.240	        24	    1200	     4.899
  53.260	        20	    1200	     4.472
  53.280	        27	    1200	     5.196
  53.300	        32	    1200	     5.657
  53.320	        18	    1200	     4.243
  53.340	        19	    1200	     4.359
  53.360	        24	    1200	     4.899
  53.380	        19	    1200	     4.359
  53.400	        18	    1200	     4.243
  53.420	        26	    1200	     5.099
  53.440	        25	    1200	     5.000
  53.460	        23	    1200	     4.796
  53.480	        29	    1200	     5.385
  53.500	        16	    1200	     4.000
  53.520	        19	    1200	     4.359
  53.540	        21	    1200	     4.583
  53.560	        21	    1200	     4.583
  53.580	        31	    1200	     5.568
  53.600	        19	    1200	     4.359
  53.620	        18	    1200	     4.243
  53.640	        30	    1200	     5.477
  53.660	        20	    1200	     4.472
  53.680	        23	    1200	     4.796
  53.700	        25	    1200	     5.000
  53.720	        14	    1200	     3.742
  53.740	        21	    1200	     4.583
  53.760	        24	    1200	     4.899
  53.780	        24	    1200	     4.899
  53.800	        19	    1200	     4.359
  53.820	        24	    1200	     4.899
  53.840	        26	    1200	     5.099
  53.860	        18	    1200	     4.243
  53.880	        33	    1200	     5.745
  53.900	        26	    1200	     5.099
  53.920	        21	    1200	     4.583
  53.940	        38	    1200	     6.164
  53.960	        23	    1200	     4.796
  53.980	        18	    1200	     4.243
  54.000	        22	    1200	     4.690
  54.020	        22	    1200	     4.690
  54.040	        32	    1200	     5.657
  54.060	        21	    1200	     4.583
  54.080	        24	    1200	     4.899
  54.100	        20	    1200	     4.472
  54.120	        29	    1200	     5.385
  54.140	        17	    1200	     4.123
  54.160	        22	    1200	     4.690
  54.180	        15	    1200	     3.873
  54.200	        23	    1200	     4.796
  54.220	        23	    1200	     4.796
  54.240	        23	    1200	     4.796
  54.260	        29	    1200	     5.385
  54.280	        34	    1200	     5.831
  54.300	        31	    1200	     5.568
  54.320	        18	    1200	     4.243
  54.340	        28	    1200	     5.292
  54.360	        18	    1200	     4.243
  54.380	        18	    1200	     4.243
  54.400	        33	    1200	     5.745
  54.420	        24	    1200	     4.899
  54.440	        29	    1200	     5.385
  54.460	        18	    1200	     4.243
  54.480	        28	    1200	     5.292
  54.500	        25	    1200	     5.000
  54.520	        27	    1200	     5.196
  54.540	        20	    1200	     4.472
  54.560	        28	    1200	     5.292
  54.580	        22	    1200	     4.690
  54.600	        24	    1200	     4.899
  54.620	        15	    1200	     3.873
  54.640	        22	    1200	     4.690
  54.660	        24	    1200	     4.899
  54.680	        28	    1200	     5.292
  54.700	        14	    1200	     3.742
  54.720	        29	    1200	     5.385
  54.740	        10	    1200	     3.162
  54.760	        30	    1200	     5.477
  54.780	        25	    1200	     5.000
  54.800	        21	    1200	     4.583
  54.820	        25	    1200	     5.000
  54.840	        22	    1200	     4.690
  54.860	        22	    1200	     4.690
  54.880	        23	    1200	     4.796
  54.900	        28	    1200	     5.292
  54.920	        32	    1200	     5.657
  54.940	        18	    1200	     4.243
  54.960	        28	    1200	     5.292
  54.980	        31	    1200	     5.568
  55.000	        26	    1200	     5.099
  55.020	        26	    1200	     5.099
  55.040	        25	    1200	     5.000
  55.060	        25	    1200	     5.000
  55.080	        23	    1200	     4.796
  55.100	        20	    1200	     4.472
  55.120	        22	    1200	     4.690
  55.140	        24	    1200	     4.899
  55.160	        29	    1200	     5.385
  55.180	        22	    1200	     4.690
  55.200	        30	    1200	     5.477
  55.220	        24	    1200	     4.899
  55.240	        28	    1200	     5.292
  55.260	        27	    1200	     5.196
  55.280	        34	    1200	     5.831
  55.300	        26	    1200	     5.099
  55.320	        24	    1200	     4.899
  55.340	        31	    1200	     5.568
  55.360	        21	    1200	     4.583
  55.380	        34	    1200	     5.831
  55.400	        31	    1200	     5.568
  55.420	        32	    1200	     5.657
  55.440	        32	    1200	     5.657
  55.460	        22	    1200	     4.690
  55.480	        30	    1200	     5.477
  55.500	        34	    1200	     5.831
  55.520	        29	    1200	     5.385
  55.540	        26	    1200	     5.099
  55.560	        27	    1200	     5.196
  55.580	        18	    1200	     4.243
  55.600	        32	    1200	     5.657
  55.620	        35	    1200	     5.916
  55.640	        26	    1200	     5.099
  55.660	        23	    1200	     4.796
  55.680	        26	    1200	     5.099
  55.700	        26	    1200	     5.099
  55.720	        18	    1200	     4.243
  55.740	        27	    1200	     5.196
  55.760	        30	    1200	     5.477
  55.780	        32	    1200	     5.657
  55.800	        31	    1200	     5.568
  55.820	        21	    1200	     4.583
  55.840	        25	    1200	     5.000
  55.860	        19	    1200	     4.359
  55.880	        28	    1200	     5.292
  55.900	        40	    1200	     6.325
  55.920	        29	    1200	     5.385
  55.940	        33	    1200	     5.745
  55.960	        38	    1200	     6.164
  55.980	        23	    1200	     4.796
  56.000	        38	    1200	     6.164
  56.020	        26	    1200	     5.099
  56.040	        34	    1200	     5.831
  56.060	        35	    1200	     5.916
  56.080	        37	    1200	     6.083
  56.100	        28	    1200	     5.292
  56.120	        34	    1200	     5.831
  56.140	        24	    1200	     4.899
  56.160	        35	    1200	     5.916
  56.180	        35	    1200	     5.916
  56.200	        20	    1200	     4.472
  56.220	        24	    1200	     4.899
  56.240	        29	    1200	     5.385
  56.260	        21	    1200	     4.583
  56.280	        34	    1200	     5.831
  56.300	        29	    1200	     5.385
  56.320	        29	    1200	     5.385
  56.340	        31	    1200	     5.568
  56.360	        25	    1200	     5.000
  56.380	        22	    1200	     4.690
  56.400	        31	    1200	     5.568
  56.420	        32	    1200	     5.657
  56.440	        22	    1200	     4.690
  56.460	        32	    1200	     5.657
  56.480	        29	    1200	     5.385
  56.500	        30	    1200	     5.477
  56.520	        27	    1200	     5.196
  56.540	        38	    1200	     6.164
  56.560	        32	    1200	     5.657
  56.580	        25	    1200	     5.000
  56.600	        36	    1200	     6.000
  56.620	        27	    1200	     5.196
  56.640	        35	    1200	     5.916
  56.660	        25	    1200	     5.000
  56.680	        23	    1200	     4.796
  56.700	        34	    1200	     5.831
  56.720	        27	    1200	     5.196
  56.740	        40	    1200	     6.325
  56.760	        29	    1200	     5.385
  56.780	        38	    1200	     6.164
  56.800	        25	    1200	     5.000
  56.820	        34	    1200	     5.831
  56.840	        41	    1200	     6.403
  56.860	        40	    1200	     6.325
  56.880	        30	    1200	     5.477
  56.900	        36	    1200	     6.000
  56.920	        40	    1200	     6.325
  56.940	        30	    1200	     5.477
  56.960	        39	    1200	     6.245
  56.980	        29	    1200	     5.385
  57.000	        49	    1200	     7.000
  57.020	        39	    1200	     6.245
  57.040	        34	    1200	     5.831
  57.060	        34	    1200	     5.831
  57.080	        31	    1200	     5.568
  57.100	        38	    1200	     6.164
  57.120	        41	    1200	     6.403
  57.140	        40	    1200	     6.325
  57.160	        42	    1200	     6.481
  57.180	        46	    1200	     6.782
  57.200	        43	    1200	     6.557
  57.220	        40	    1200	     6.325
  57.240	        21	    1200	     4.583
  57.260	        43	    1200	     6.557
  57.280	        52	    1200	     7.211
  57.300	        49	    1200	     7.000
  57.320	        57	    1200	     7.550
  57.340	        61	    1200	     7.810
  57.360	        66	    1200	     8.124
  57.380	        67	    1200	     8.185
  57.400	        76	    1200	     8.718
  57.420	        67	    1200	     8.185
  57.440	        72	    1200	     8.485
  57.460	        75	    1200	     8.660
  57.480	       101	    1200	    10.050
  57.500	       100	    1200	    10.000
  57.520	       103	    1200	    10.149
  57.540	       106	    1200	    10.296
  57.560	       130	    1200	    11.402
  57.580	       140	    1200	    11.832
  57.600	       160	    1200	    12.649
  57.620	       176	    1200	    13.266
  57.640	       182	    1200	    13.491
  57.660	       213	    1200	    14.595
  57.680	       200	    1200	    14.142
  57.700	       260	    1200	    16.125
  57.720	       273	    1200	    16.523
  57.740	       330	    1200	    18.166
  57.760	       355	    1200	    18.841
  57.780	       391	    1200	    19.774
  57.800	       441	    1200	    21.000
  57.820	       545	    1200	    23.345
  57.840	       589	    1200	    24.269
  57.860	       692	    1200	    26.306
  57.880	       827	    1200	    28.758
  57.900	       959	    1200	    30.968
  57.920	      1118	    1200	    33.437
  57.940	      1241	    1200	    35.228
  57.960	      1250	    1200	    35.355
  57.980	      1164	    1200	    34.117
  58.000	      1197	    1200	    34.598
  58.020	      1178	    1200	    34.322
  58.040	      1187	    1200	    34.453
  58.060	      1130	    1200	    33.615
  58.080	      1104	    1200	    33.226
  58.100	      1072	    1200	    32.741
  58.120	       988	    1200	    31.432
  58.140	       966	    1200	    31.081
  58.160	       868	    1200	    29.462
  58.180	       727	    1200	    26.963
  58.200	       725	    1200	    26.926
  58.220	       600	    1200	    24.495
  58.240	       487	    1200	    22.068
  58.260	       438	    1200	    20.928
  58.280	       390	    1200	    19.748
  58.300	       343	    1200	    18.520
  58.320	       291	    1200	    17.059
  58.340	       257	    1200	    16.031
  58.360	       235	    1200	    15.330
  58.380	       210	    1200	    14.491
  58.400	       158	    1200	    12.570
  58.420	       149	    1200	    12.207
  58.440	       157	    1200	    12.530
  58.460	       122	    1200	    11.045
  58.480	       140	    1200	    11.832
  58.500	       104	    1200	    10.198
  58.520	        97	    1200	     9.849
  58.540	       101	    1200	    10.050
  58.560	        81	    1200	     9.000
  58.580	        81	    1200	     9.000
  58.600	        58	    1200	     7.616
  58.620	        65	    1200	     8.062
  58.640	        64	    1200	     8.000
  58.660	        74	    1200	     8.602
  58.680	        65	    1200	     8.062
  58.700	        59	    1200	     7.681
  58.720	        59	    1200	     7.681
  58.740	        57	    1200	     7.550
  58.760	        45	    1200	     6.708
  58.780	        43	    1200	     6.557
  58.800	        51	    1200	     7.141
  58.820	        47	    1200	     6.856
  58.840	        39	    1200	     6.245
  58.860	        47	    1200	     6.856
  58.880	        47	    1200	     6.856
  58.900	        50	    1200	     7.071
  58.920	        43	    1200	     6.557
  58.940	        26	    1200	     5.099
  58.960	        37	    1200	     6.083
  58.980	        38	    1200	     6.164
  59.000	        43	    1200	     6.557
  59.020	        48	    1200	     6.928
  59.040	        29	    1200	     5.385
  59.060	        44	    1200	     6.633
  59.080	        26	    1200	     5.099
  59.100	        39	    1200	     6.245
  59.120	        44	    1200	     6.633
  59.140	        35	    1200	     5.916
  59.160	        52	    1200	     7.211
  59.180	        38	    1200	     6.164
  59.200	        36	    1200	     6.000
  59.220	        44	    1200	     6.633
  59.240	        44	    1200	     6.633
  59.260	        35	    1200	     5.916
  59.280	        26	    1200	     5.099
  59.300	        34	    1200	     5.831
  59.320	        38	    1200	     6.164
  59.340	        37	    1200	     6.083
  59.360	        31	    1200	     5.568
  59.380	        31	    1200	     5.568
  59.400	        25	    1200	     5.000
  59.420	        38	    1200	     6.164
  59.440	        38	    1200	     6.164
  59.460	        25	    1200	     5.000
  59.480	        41	    1200	     6.403
  59.500	        27	    1200	     5.196
  59.520	        33	    1200	     5.745
  59.540	        36	    1200	     6.000
  59.560	        29	    1200	     5.385
  59.580	        28	    1200	     5.292
  59.600	        34	    1200	     5.831
  59.620	        29	    1200	     5.385
  59.640	        27	    1200	     5.196
  59.660	        26	    1200	     5.099
  59.680	        29	    1200	     5.385
  59.700	        32	    1200	     5.657
  59.720	        39	    1200	     6.245
  59.740	        35	    1200	     5.916
  59.760	        29	    1200	     5.385
  59.780	        20	    1200	     4.472
  59.800	        45	    1200	     6.708
  59.820	        21	    1200	     4.583
  59.840	        24	    1200	     4.899
  59.860	        30	    1200	     5.477
  59.880	        18	    1200	     4.243
  59.900	        29	    1200	     5.385
  59.920	        27	    1200	     5.196
  59.940	        35	    1200	     5.916
  59.960	        26	    1200	     5.099
  59.980	        34	    1200	     5.831
  60.000	        25	    1200	     5.000
  60.020	        28	    1200	     5.292
  60.040	        31	    1200	     5.568
  60.060	        36	    1200	     6.000
  60.080	        32	    1200	     5.657
  60.100	        31	    1200	     5.568
  60.120	        28	    1200	     5.292
  60.140	        28	    1200	     5.292
  60.160	        30	    1200	     5.477
  60.180	        24	    1200	     4.899
  60.200	        33	    1200	     5.745
  60.220	        25	    1200	     5.000
  60.240	        29	    1200	     5.385
  60.260	        27	    1200	     5.196
  60.280	        27	    1200	     5.196
  60.300	        22	    1200	     4.690
  60.320	        22	    1200	     4.690
  60.340	        29	    1200	     5.385
  60.360	        28	    1200	     5.292
  60.380	        29	    1200	     5.385
  60.400	        26	    1200	     5.099
  60.420	        26	    1200	     5.099
  60.440	        28	    1200	     5.292
  60.460	        26	    1200	     5.099
  60.480	        26	    1200	     5.099
  60.500	        37	    1200	     6.083
  60.520	        25	    1200	     5.000
  60.540	        22	    1200	     4.690
  60.560	        23	    1200	     4.796
  60.580	        29	    1200	     5.385
  60.600	        21	    1200	     4.583
  60.620	        19	    1200	     4.359
  60.640	        29	    1200	     5.385
  60.660	        22	    1200	     4.690
  60.680	        29	    1200	     5.385
  60.700	        32	    1200	     5.657
  60.720	        22	    1200	     4.690
  60.740	        13	    1200	     3.606
  60.760	        27	    1200	     5.196
  60.780	        33	    1200	     5.745
  60.800	        25	    1200	     5.000
  60.820	        35	    1200	     5.916
  60.840	        29	    1200	     5.385
  60.860	        32	    1200	     5.657
  60.880	        35	    1200	     5.916
  60.900	        33	    1200	     5.745
  60.920	        25	    1200	     5.000
  60.940	        28	    1200	     5.292
  60.960	        26	    1200	     5.099
  60.980	        27	    1200	     5.196
  61.000	        30	    1200	     5.477
  61.020	        31	    1200	     5.568
  61.040	        28	    1200	     5.292
  61.060	        25	    1200	     5.000
  61.080	        20	    1200	     4.472
  61.100	        21	    1200	     4.583
  61.120	        25	    1200	     5.000
  61.140	        20	    1200	     4.472
  61.160	        28	    1200	     5.292
  61.180	        27	    1200	     5.196
  61.200	        33	    1200	     5.745
  61.220	        20	    1200	     4.472
  61.240	        28	    1200	     5.292
  61.260	        17	    1200	     4.123
  61.280	        15	    1200	     3.873
  61.300	        23	    1200	     4.796
  61.320	        30	    1200	     5.477
  61.340	        38	    1200	     6.164
  61.360	        21	    1200	     4.583
  61.380	        35	    1200	     5.916
  61.400	        23	    1200	     4.796
  61.420	        29	    1200	     5.385
  61.440	        23	    1200	     4.796
  61.460	        23	    1200	     4.796
  61.480	        16	    1200	     4.000
  61.500	        27	    1200	     5.196
  61.520	        26	    1200	     5.099
  61.540	        27	    1200	     5.196
  61.560	        24	    1200	     4.899
  61.580	        24	    1200	     4.899
  61.600	        17	    1200	     4.123
  61.620	        22	    1200	     4.690
  61.640	        28	    1200	     5.292
  61.660	        25	    1200	     5.000
  61.680	        16	    1200	     4.000
  61.700	        28	    1200	     5.292
  61.720	        30	    1200	     5.477
  61.740	        19	    1200	     4.359
  61.760	        28	    1200	     5.292
  61.780	        23	    1200	     4.796
  61.800	        27	    1200	     5.196
  61.820	        20	    1200	     4.472
  61.840	        14	    1200	     3.742
  61.860	        34	    1200	     5.831
  61.880	        22	    1200	     4.690
  61.900	        24	    1200	     4.899
  61.920	        28	    1200	     5.292
  61.940	        20	    1200	     4.472
  61.960	        19	    1200	     4.359
  61.980	        28	    1200	     5.292
  62.000	        28	    1200	     5.292
  62.020	        26	    1200	     5.099
  62.040	        27	    1200	     5.196
  62.060	        23	    1200	     4.796
  62.080	        21	    1200	     4.583
  62.100	        22	    1200	     4.690
  62.120	        22	    1200	     4.690
  62.140	        24	    1200	     4.899
  62.160	        31	    1200	     5.568
  62.180	        26	    1200	     5.099
  62.200	        22	    1200	     4.690
  62.220	        19	    1200	     4.359
  62.240	        20	    1200	     4.472
  62.260	        26	    1200	     5.099
  62.280	        20	    1200	     4.472
  62.300	        26	    1200	     5.099
  62.320	        22	    1200	     4.690
  62.340	        23	    1200	     4.796
  62.360	        17	    1200	     4.123
  62.380	        23	    1200	     4.796
  62.400	        22	    1200	     4.690
  62.420	        18	    1200	     4.243
  62.440	        29	    1200	     5.385
  62.460	        29	    1200	     5.385
  62.480	        26	    1200	     5.099
  62.500	        26	    1200	     5.099
  62.520	        30	    1200	     5.477
  62.540	        21	    1200	     4.583
  62.560	        24	    1200	     4.899
  62.580	        26	    1200	     5.099
  62.600	        22	    1200	     4.690
  62.620	        26	    1200	     5.099
  62.640	        15	    1200	     3.873
  62.660	        30	    1200	     5.477
  62.680	        26	    1200	     5.099
  62.700	        28	    1200	     5.292
  62.720	        23	    1200	     4.796
  62.740	        18	    1200	     4.243
  62.760	        18	    1200	     4.243
  62.780	        26	    1200	     5.099
  62.800	        25	    1200	     5.000
  62.820	        23	    1200	     4.796
  62.840	        17	    1200	     4.123
  62.860	        12	    1200	     3.464
  62.880	        26	    1200	     5.099
  62.900	        14	    1200	     3.742
  62.920	        22	    1200	     4.690
  62.940	        32	    1200	     5.657
  62.960	        29	    1200	     5.385
  62.980	        21	    1200	     4.583
  63.000	        27	    1200	     5.196
  63.020	        20	    1200	     4.472
  63.040	        25	    1200	     5.000
  63.060	        20	    1200	     4.472
  63.080	        12	    1200	     3.464
  63.100	        23	    1200	     4.796
  63.120	        38	    1200	     6.164
  63.140	        28	    1200	     5.292
  63.160	        23	    1200	     4.796
  63.180	        28	    1200	     5.292
  63.200	        26	    1200	     5.099
  63.220	        19	    1200	     4.359
  63.240	        15	    1200	     3.873
  63.260	        17	    1200	     4.123
  63.280	        24	    1200	     4.899
  63.300	        21	    1200	     4.583
  63.320	        22	    1200	     4.690
  63.340	        24	    1200	     4.899
  63.360	        42	    1200	     6.481
  63.380	        24	    1200	     4.899
  63.400	        23	    1200	     4.796
  63.420	        22	    1200	     4.690
  63.440	        19	    1200	     4.359
  63.460	        29	    1200	     5.385
  63.480	        25	    1200	     5.000
  63.500	        21	    1200	     4.583
  63.520	        15	    1200	     3.873
  63.540	        31	    1200	     5.568
  63.560	        29	    1200	     5.385
  63.580	        28	    1200	     5.292
  63.600	        29	    1200	     5.385
  63.620	        26	    1200	     5.099
  63.640	        28	    1200	     5.292
  63.660	        21	    1200	     4.583
  63.680	        24	    1200	     4.899
  63.700	        27	    1200	     5.196
  63.720	        17	    1200	     4.123
  63.740	        23	    1200	     4.796
  63.760	        26	    1200	     5.099
  63.780	        30	    1200	     5.477
  63.800	        26	    1200	     5.099
  63.820	        26	    1200	     5.099
  63.840	        27	    1200	     5.196
  63.860	        20	    1200	     4.472
  63.880	        29	    1200	     5.385
  63.900	        31	    1200	     5.568
  63.920	        17	    1200	     4.123
  63.940	        23	    1200	     4.796
  63.960	        20	    1200	     4.472
  63.980	        19	    1200	     4.359
  64.000	        16	    1200	     4.000
  64.020	        15	    1200	     3.873
  64.040	        26	    1200	     5.099
  64.060	        25	    1200	     5.000
  64.080	        23	    1200	     4.796
  64.100	        22	    1200	     4.690
  64.120	        30	    1200	     5.477
  64.140	        23	    1200	     4.796
  64.160	        31	    1200	     5.568
  64.180	        22	    1200	     4.690
  64.200	        28	    1200	     5.292
  64.220	        28	    1200	     5.292
  64.240	        17	    1200	     4.123
  64.260	        27	    1200	     5.196
  64.280	        22	    1200	     4.690
  64.300	        24	    1200	     4.899
  64.320	        14	    1200	     3.742
  64.340	        25	    1200	     5.000
  64.360	        27	    1200	     5.196
  64.380	        23	    1200	     4.796
  64.400	        29	    1200	     5.385
  64.420	        16	    1200	     4.000
  64.440	        28	    1200	     5.292
  64.460	        26	    1200	     5.099
  64.480	        22	    1200	     4.690
  64.500	        22	    1200	     4.690
  64.520	        27	    1200	     5.196
  64.540	        23	    1200	     4.796
  64.560	        23	    1200	     4.796
  64.580	        23	    1200	     4.796
  64.600	        23	    1200	     4.796
  64.620	        25	    1200	     5.000
  64.640	        31	    1200	     5.568
  64.660	        25	    1200	     5.000
  64.680	        32	    1200	     5.657
  64.700	        17	    1200	     4.123
  64.720	        31	    1200	     5.568
  64.740	        30	    1200	     5.477
  64.760	        33	    1200	     5.745
  64.780	        22	    1200	     4.690
  64.800	        17	    1200	     4.123
  64.820	        40	    1200	     6.325
  64.840	        25	    1200	     5.000
  64.860	        27	    1200	     5.196
  64.880	        22	    1200	     4.690
  64.900	        22	    1200	     4.690
  64.920	        30	    1200	     5.477
  64.940	        25	    1200	     5.000
  64.960	        30	    1200	     5.477
  64.980	        29	    1200	     5.385
  65.000	        22	    1200	     4.690
  65.020	        20	    1200	     4.472
  65.040	        31	    1200	     5.568
  65.060	        25	    1200	     5.000
  65.080	        28	    1200	     5.292
  65.100	        18	    1200	     4.243
  65.120	        21	    1200	     4.583
  65.140	        21	    1200	     4.583
  65.160	        28	    1200	     5.292
  65.180	        31	    1200	     5.568
  65.200	        29	    1200	     5.385
  65.220	        10	    1200	     3.162
  65.240	        31	    1200	     5.568
  65.260	        20	    1200	     4.472
  65.280	        22	    1200	     4.690
  65.300	        29	    1200	     5.385
  65.320	        24	    1200	     4.899
  65.340	        27	    1200	     5.196
  65.360	        22	    1200	     4.690
  65.380	        26	    1200	     5.099
  65.400	        20	    1200	     4.472
  65.420	        29	    1200	     5.385
  65.440	        24	    1200	     4.899
  65.460	        34	    1200	     5.831
  65.480	        27	    1200	     5.196
  65.500	        25	    1200	     5.000
  65.520	        18	    1200	     4.243
  65.540	        29	    1200	     5.385
  65.560	        24	    1200	     4.899
  65.580	        29	    1200	     5.385
  65.600	        24	    1200	     4.899
  65.620	        26	    1200	     5.099
  65.640	        23	    1200	     4.796
  65.660	        26	    1200	     5.099
  65.680	        30	    1200	     5.477
  65.700	        22	    1200	     4.690
  65.720	        35	    1200	     5.916
  65.740	        21	    1200	     4.583
  65.760	        30	    1200	     5.477
  65.780	        31	    1200	     5.568
  65.800	        32	    1200	     5.657
  65.820	        24	    1200	     4.899
  65.840	        25	    1200	     5.000
  65.860	        30	    1200	     5.477
  65.880	        28	    1200	     5.292
  65.900	        27	    1200	     5.196
  65.920	        29	    1200	     5.385
  65.940	        27	    1200	     5.196
  65.960	        27	    1200	     5.196
  65.980	        29	    1200	     5.385
  66.000	        28	    1200	     5.292
  66.020	        32	    1200	     5.657
  66.040	        22	    1200	     4.690
  66.060	        22	    1200	     4.690
  66.080	        22	    1200	     4.690
  66.100	        29	    1200	     5.385
  66.120	        29	    1200	     5.385
  66.140	        24	    1200	     4.899
  66.160	        28	    1200	     5.292
  66.180	        24	    1200	     4.899
  66.200	        23	    1200	     4.796
  66.220	        28	    1200	     5.292
  66.240	        23	    1200	     4.796
  66.260	        18	    1200	     4.243
  66.280	        18	    1200	     4.243
  66.300	        26	    1200	     5.099
  66.320	        32	    1200	     5.657
  66.340	        25	    1200	     5.000
  66.360	        28	    1200	     5.292
  66.380	        20	    1200	     4.472
  66.400	        25	    1200	     5.000
  66.420	        30	    1200	     5.477
  66.440	        18	    1200	     4.243
  66.460	        26	    1200	     5.099
  66.480	        28	    1200	     5.292
  66.500	        26	    1200	     5.099
  66.520	        26	    1200	     5.099
  66.540	        25	    1200	     5.000
  66.560	        29	    1200	     5.385
  66.580	        21	    1200	     4.583
  66.600	        26	    1200	     5.099
  66.620	        32	    1200	     5.657
  66.640	        23	    1200	     4.796
  66.660	        28	    1200	     5.292
  66.680	        26	    1200	     5.099
  66.700	        25	    1200	     5.000
  66.720	        34	    1200	     5.831
  66.740	        31	    1200	     5.568
  66.760	        22	    1200	     4.690
  66.780	        24	    1200	     4.899
  66.800	        27	    1200	     5.196
  66.820	        29	    1200	     5.385
  66.840	        35	    1200	     5.916
  66.860	        29	    1200	     5.385
  66.880	        25	    1200	     5.000
  66.900	        28	    1200	     5.292
  66.920	        29	    1200	     5.385
  66.940	        24	    1200	     4.899
  66.960	        37	    1200	     6.083
  66.980	        33	    1200	     5.745
  67.000	        39	    1200	     6.245
  67.020	        40	    1200	     6.325
  67.040	        30	    1200	     5.477
  67.060	        14	    1200	     3.742
  67.080	        28	    1200	     5.292
  67.100	        41	    1200	     6.403
  67.120	        32	    1200	     5.657
  67.140	        50	    1200	     7.071
  67.160	        25	    1200	     5.000
  67.180	        44	    1200	     6.633
  67.200	        40	    1200	     6.325
  67.220	        36	    1200	     6.000
  67.240	        37	    1200	     6.083
  67.260	        45	    1200	     6.708
  67.280	        39	    1200	     6.245
  67.300	        37	    1200	     6.083
  67.320	        54	    1200	     7.348
  67.340	        41	    1200	     6.403
  67.360	        44	    1200	     6.633
  67.380	        35	    1200	     5.916
  67.400	        43	    1200	     6.557
  67.420	        41	    1200	     6.403
  67.440	        45	    1200	     6.708
  67.460	        58	    1200	     7.616
  67.480	        57	    1200	     7.550
  67.500	        52	    1200	     7.211
  67.520	        49	    1200	     7.000
  67.540	        64	    1200	     8.000
  67.560	        67	    1200	     8.185
  67.580	        50	    1200	     7.071
  67.600	        88	    1200	     9.381
  67.620	        88	    1200	     9.381
  67.640	        69	    1200	     8.307
  67.660	        91	    1200	     9.539
  67.680	        90	    1200	     9.487
  67.700	        95	    1200	     9.747
  67.720	        95	    1200	     9.747
  67.740	        89	    1200	     9.434
  67.760	       151	    1200	    12.288
  67.780	       130	    1200	    11.402
  67.800	       137	    1200	    11.705
  67.820	       145	    1200	    12.042
  67.840	       169	    1200	    13.000
  67.860	       172	    1200	    13.115
  67.880	       218	    1200	    14.765
  67.900	       219	    1200	    14.799
  67.920	       281	    1200	    16.763
  67.940	       263	    1200	    16.217
  67.960	       356	    1200	    18.868
  67.980	       351	    1200	    18.735
  68.000	       427	    1200	    20.664
  68.020	       516	    1200	    22.716
  68.040	       564	    1200	    23.749
  68.060	       584	    1200	    24.166
  68.080	       611	    1200	    24.718
  68.100	       628	    1200	    25.060
  68.120	       599	    1200	    24.474
  68.140	       568	    1200	    23.833
  68.160	       522	    1200	    22.847
  68.180	       502	    1200	    22.405
  68.200	       491	    1200	    22.159
  68.220	       515	    1200	    22.694
  68.240	       501	    1200	    22.383
  68.260	       477	    1200	    21.840
  68.280	       505	    1200	    22.472
  68.300	       440	    1200	    20.976
  68.320	       438	    1200	    20.928
  68.340	       372	    1200	    19.287
  68.360	       364	    1200	    19.079
  68.380	       283	    1200	    16.823
  68.400	       267	    1200	    16.340
  68.420	       224	    1200	    14.967
  68.440	       210	    1200	    14.491
  68.460	       200	    1200	    14.142
  68.480	       155	    1200	    12.450
  68.500	       177	    1200	    13.304
  68.520	       137	    1200	    11.705
  68.540	       122	    1200	    11.045
  68.560	       126	    1200	    11.225
  68.580	       107	    1200	    10.344
  68.600	        96	    1200	     9.798
  68.620	        82	    1200	     9.055
  68.640	        76	    1200	     8.718
  68.660	        78	    1200	     8.832
  68.680	        77	    1200	     8.775
  68.700	        84	    1200	     9.165
  68.720	        52	    1200	     7.211
  68.740	        59	    1200	     7.681
  68.760	        50	    1200	     7.071
  68.780	        56	    1200	     7.483
  68.800	        37	    1200	     6.083
  68.820	        45	    1200	     6.708
  68.840	        45	    1200	     6.708
  68.860	        43	    1200	     6.557
  68.880	        31	    1200	     5.568
  68.900	        41	    1200	     6.403
  68.920	        40	    1200	     6.325
  68.940	        31	    1200	     5.568
  68.960	        36	    1200	     6.000
  68.980	        22	    1200	     4.690
  69.000	        41	    1200	     6.403
  69.020	        36	    1200	     6.000
  69.040	        46	    1200	     6.782
  69.060	        39	    1200	     6.245
  69.080	        39	    1200	     6.245
  69.100	        32	    1200	     5.657
  69.120	        36	    1200	     6.000
  69.140	        34	    1200	     5.831
  69.160	        19	    1200	     4.359
  69.180	        25	    1200	     5.000
  69.200	        28	    1200	     5.292
  69.220	        29	    1200	     5.385
  69.240	        38	    1200	     6.164
  69.260	        30	    1200	     5.477
  69.280	        24	    1200	     4.899
  69.300	        28	    1200	     5.292
  69.320	        27	    1200	     5.196
  69.340	        36	    1200	     6.000
  69.360	        29	    1200	     5.385
  69.380	        28	    1200	     5.292
  69.400	        33	    1200	     5.745
  69.420	        37	    1200	     6.083
  69.440	        31	    1200	     5.568
  69.460	        38	    1200	     6.164
  69.480	        19	    1200	     4.359
  69.500	        20	    1200	     4.472
  69.520	        18	    1200	     4.243
  69.540	        22	    1200	     4.690
  69.560	        25	    1200	     5.000
  69.580	        22	    1200	     4.690
  69.600	        29	    1200	     5.385
  69.620	        25	    1200	     5.000
  69.640	        29	    1200	     5.385
  69.660	        22	    1200	     4.690
  69.680	        23	    1200	     4.796
  69.700	        41	    1200	     6.403
  69.720	        19	    1200	     4.359
  69.740	        29	    1200	     5.385
  69.760	        30	    1200	     5.477
  69.780	        35	    1200	     5.916
  69.800	        21	    1200	     4.583
  69.820	        25	    1200	     5.000
  69.840	        29	    1200	     5.385
  69.860	        24	    1200	     4.899
  69.880	        26	    1200	     5.099
  69.900	        28	    1200	     5.292
  69.920	        20	    1200	     4.472
  69.940	        35	    1200	     5.916
  69.960	        26	    1200	     5.099
  69.980	        26	    1200	     5.099
  70.000	        34	    1200	     5.831
  70.020	        26	    1200	     5.099
  70.040	        24	    1200	     4.899
  70.060	        32	    1200	     5.657
  70.080	        24	    1200	     4.899
  70.100	        26	    1200	     5.099
  70.120	        23	    1200	     4.796
  70.140	        25	    1200	     5.000
  70.160	        21	    1200	     4.583
  70.180	        22	    1200	     4.690
  70.200	        24	    1200	     4.899
  70.220	        21	    1200	     4.583
  70.240	        25	    1200	     5.000
  70.260	        33	    1200	     5.745
  70.280	        27	    1200	     5.196
  70.300	        26	    1200	     5.099
  70.320	        34	    1200	     5.831
  70.340	        22	    1200	     4.690
  70.360	        25	    1200	     5.000
  70.380	        23	    1200	     4.796
  70.400	        25	    1200	     5.000
  70.420	        26	    1200	     5.099
  70.440	        19	    1200	     4.359
  70.460	        27	    1200	     5.196
  70.480	        23	    1200	     4.796
  70.500	        16	    1200	     4.000
  70.520	        22	    1200	     4.690
  70.540	        27	    1200	     5.196
  70.560	        27	    1200	     5.196
  70.580	        26	    1200	     5.099
  70.600	        25	    1200	     5.000
  70.620	        23	    1200	     4.796
  70.640	        28	    1200	     5.292
  70.660	        25	    1200	     5.000
  70.680	        26	    1200	     5.099
  70.700	        33	    1200	     5.745
  70.720	        20	    1200	     4.472
  70.740	        29	    1200	     5.385
  70.760	        22	    1200	     4.690
  70.780	        24	    1200	     4.899
  70.800	        25	    1200	     5.000
  70.820	        24	    1200	     4.899
  70.840	        21	    1200	     4.583
  70.860	        30	    1200	     5.477
  70.880	        23	    1200	     4.796
  70.900	        15	    1200	     3.873
  70.920	        18	    1200	     4.243
  70.940	        28	    1200	     5.292
  70.960	        21	    1200	     4.583
  70.980	        22	    1200	     4.690
  71.000	        25	    1200	     5.000
  71.020	        17	    1200	     4.123
  71.040	        24	    1200	     4.899
  71.060	        25	    1200	     5.000
  71.080	        24	    1200	     4.899
  71.100	        18	    1200	     4.243
  71.120	        17	    1200	     4.123
  71.140	        21	    1200	     4.583
  71.160	        23	    1200	     4.796
  71.180	        18	    1200	     4.243
  71.200	        28	    1200	     5.292
  71.220	        23	    1200	     4.796
  71.240	        26	    1200	     5.099
  71.260	        26	    1200	     5.099
  71.280	        22	    1200	     4.690
  71.300	        22	    1200	     4.690
  71.320	        28	    1200	     5.292
  71.340	        26	    1200	     5.099
  71.360	        14	    1200	     3.742
  71.380	        22	    1200	     4.690
  71.400	        27	    1200	     5.196
  71.420	        32	    1200	     5.657
  71.440	        20	    1200	     4.472
  71.460	        25	    1200	     5.000
  71.480	        22	    1200	     4.690
  71.500	        23	    1200	     4.796
  71.520	        23	    1200	     4.796
  71.540	        24	    1200	     4.899
  71.560	        22	    1200	     4.690
  71.580	        23	    1200	     4.796
  71.600	        21	    1200	     4.583
  71.620	        17	    1200	     4.123
  71.640	        28	    1200	     5.292
  71.660	        24	    1200	     4.899
  71.680	        24	    1200	     4.899
  71.700	        19	    1200	     4.359
  71.720	        24	    1200	     4.899
  71.740	        23	    1200	     4.796
  71.760	        15	    1200	     3.873
  71.780	        21	    1200	     4.583
  71.800	        19	    1200	     4.359
  71.820	        25	    1200	     5.000
  71.840	        31	    1200	     5.568
  71.860	        17	    1200	     4.123
  71.880	        20	    1200	     4.472
  71.900	        33	    1200	     5.745
  71.920	        22	    1200	     4.690
  71.940	        20	    1200	     4.472
  71.960	        25	    1200	     5.000
  71.980	        22	    1200	     4.690
  72.000	        22	    1200	     4.690
  72.020	        28	    1200	     5.292
  72.040	        26	    1200	     5.099
  72.060	        25	    1200	     5.000
  72.080	        26	    1200	     5.099
  72.100	        26	    1200	     5.099
  72.120	        27	    1200	     5.196
  72.140	        18	    1200	     4.243
  72.160	        19	    1200	     4.359
  72.180	        24	    1200	     4.899
  72.200	        24	    1200	     4.899
  72.220	        18	    1200	     4.243
  72.240	        27	    1200	     5.196
  72.260	        10	    1200	     3.162
  72.280	        24	    1200	     4.899
  72.300	        25	    1200	     5.000
  72.320	        25	    1200	     5.000
  72.340	        27	    1200	     5.196
  72.360	        34	    1200	     5.831
  72.380	        24	    1200	     4.899
  72.400	        19	    1200	     4.359
  72.420	        28	    1200	     5.292
  72.440	        24	    1200	     4.899
  72.460	        18	    1200	     4.243
  72.480	        30	    1200	     5.477
  72.500	        33	    1200	     5.745
  72.520	        20	    1200	     4.472
  72.540	        29	    1200	     5.385
  72.560	        32	    1200	     5.657
  72.580	        19	    1200	     4.359
  72.600	        23	    1200	     4.796
  72.620	        30	    1200	     5.477
  72.640	        33	    1200	     5.745
  72.660	        32	    1200	     5.657
  72.680	        23	    1200	     4.796
  72.700	        35	    1200	     5.916
  72.720	        20	    1200	     4.472
  72.740	        38	    1200	     6.164
  72.760	        38	    1200	     6.164
  72.780	        46	    1200	     6.782
  72.800	        47	    1200	     6.856
  72.820	        48	    1200	     6.928
  72.840	        43	    1200	     6.557
  72.860	        54	    1200	     7.348
  72.880	        54	    1200	     7.348
  72.900	        57	    1200	     7.550
  72.920	        51	    1200	     7.141
  72.940	        41	    1200	     6.403
  72.960	        40	    1200	     6.325
  72.980	        39	    1200	     6.245
  73.000	        36	    1200	     6.000
  73.020	        42	    1200	     6.481
  73.040	        44	    1200	     6.633
  73.060	        39	    1200	     6.245
  73.080	        48	    1200	     6.928
  73.100	        32	    1200	     5.657
  73.120	        41	    1200	     6.403
  73.140	        35	    1200	     5.916
  73.160	        33	    1200	     5.745
  73.180	        30	    1200	     5.477
  73.200	        43	    1200	     6.557
  73.220	        32	    1200	     5.657
  73.240	        31	    1200	     5.568
  73.260	        27	    1200	     5.196
  73.280	        24	    1200	     4.899
  73.300	        36	    1200	     6.000
  73.320	        17	    1200	     4.123
  73.340	        24	    1200	     4.899
  73.360	        16	    1200	     4.000
  73.380	        33	    1200	     5.745
  73.400	        30	    1200	     5.477
  73.420	        16	    1200	     4.000
  73.440	        33	    1200	     5.745
  73.460	        15	    1200	     3.873
  73.480	        23	    1200	     4.796
  73.500	        26	    1200	     5.099
  73.520	        17	    1200	     4.123
  73.540	        20	    1200	     4.472
  73.560	        22	    1200	     4.690
  73.580	        26	    1200	     5.099
  73.600	        24	    1200	     4.899
  73.620	        25	    1200	     5.000
  73.640	        20	    1200	     4.472
  73.660	        21	    1200	     4.583
  73.680	        23	    1200	     4.796
  73.700	        30	    1200	     5.477
  73.720	        15	    1200	     3.873
  73.740	        15	    1200	     3.873
  73.760	        28	    1200	     5.292
  73.780	        24	    1200	     4.899
  73.800	        22	    1200	     4.690
  73.820	        29	    1200	     5.385
  73.840	        27	    1200	     5.196
  73.860	        25	    1200	     5.000
  73.880	        21	    1200	     4.583
  73.900	        18	    1200	     4.243
  73.920	        19	    1200	     4.359
  73.940	        27	    1200	     5.196
  73.960	        21	    1200	     4.583
  73.980	        28	    1200	     5.292
  74.000	        23	    1200	     4.796
  74.020	        22	    1200	     4.690
  74.040	        17	    1200	     4.123
  74.060	        36	    1200	     6.000
  74.080	        20	    1200	     4.472
  74.100	        28	    1200	     5.292
  74.120	        33	    1200	     5.745
  74.140	        18	    1200	     4.243
  74.160	        17	    1200	     4.123
  74.180	        29	    1200	     5.385
  74.200	        15	    1200	     3.873
  74.220	        22	    1200	     4.690
  74.240	        21	    1200	     4.583
  74.260	        20	    1200	     4.472
  74.280	        18	    1200	     4.243
  74.300	        22	    1200	     4.690
  74.320	        22	    1200	     4.690
  74.340	        21	    1200	     4.583
  74.360	        12	    1200	     3.464
  74.380	        28	    1200	     5.292
  74.400	        17	    1200	     4.123
  74.420	        26	    1200	     5.099
  74.440	        26	    1200	     5.099
  74.460	        19	    1200	     4.359
  74.480	        20	    1200	     4.472
  74.500	        13	    1200	     3.606
  74.520	        22	    1200	     4.690
  74.540	        24	    1200	     4.899
  74.560	        25	    1200	     5.000
  74.580	        20	    1200	     4.472
  74.600	        20	    1200	     4.472
  74.620	        17	    1200	     4.123
  74.640	        20	    1200	     4.472
  74.660	        29	    1200	     5.385
  74.680	        18	    1200	     4.243
  74.700	        22	    1200	     4.690
  74.720	        24	    1200	     4.899
  74.740	        24	    1200	     4.899
  74.760	        22	    1200	     4.690
  74.780	        23	    1200	     4.796
  74.800	        27	    1200	     5.196
  74.820	        23	    1200	     4.796
  74.840	        24	    1200	     4.899
  74.860	        25	    1200	     5.000
  74.880	        30	    1200	     5.477
  74.900	        23	    1200	     4.796
  74.920	        22	    1200	     4.690
  74.940	        22	    1200	     4.690
  74.960	        19	    1200	     4.359
  74.980	        21	    1200	     4.583
  75.000	        32	    1200	     5.657
  75.020	        32	    1200	     5.657
  75.040	        25	    1200	     5.000
  75.060	        14	    1200	     3.742
  75.080	        27	    1200	     5.196
  75.100	        28	    1200	     5.292
  75.120	        32	    1200	     5.657
  75.140	        36	    1200	     6.000
  75.160	        26	    1200	     5.099
  75.180	        24	    1200	     4.899
  75.200	        20	    1200	     4.472
  75.220	        25	    1200	     5.000
  75.240	        24	    1200	     4.899
  75.260	        20	    1200	     4.472
  75.280	        26	    1200	     5.099
  75.300	        27	    1200	     5.196
  75.320	        25	    1200	     5.000
  75.340	        26	    1200	     5.099
  75.360	        27	    1200	     5.196
  75.380	        21	    1200	     4.583
  75.400	        19	    1200	     4.359
  75.420	        22	    1200	     4.690
  75.440	        27	    1200	     5.196
  75.460	        23	    1200	     4.796
  75.480	        21	    1200	     4.583
  75.500	        35	    1200	     5.916
  75.520	        26	    1200	     5.099
  75.540	        23	    1200	     4.796
  75.560	        21	    1200	     4.583
  75.580	        22	    1200	     4.690
  75.600	        28	    1200	     5.292
  75.620	        18	    1200	     4.243
  75.640	        20	    1200	     4.472
  75.660	        25	    1200	     5.000
  75.680	        23	    1200	     4.796
  75.700	        25	    1200	     5.000
  75.720	        23	    1200	     4.796
  75.740	        22	    1200	     4.690
  75.760	        29	    1200	     5.385
  75.780	        15	    1200	     3.873
  75.800	        24	    1200	     4.899
  75.820	        22	    1200	     4.690
  75.840	        23	    1200	     4.796
  75.860	        26	    1200	     5.099
  75.880	        21	    1200	     4.583
  75.900	        11	    1200	     3.317
  75.920	        21	    1200	     4.583
  75.940	        27	    1200	     5.196
  75.960	        24	    1200	     4.899
  75.980	        36	    1200	     6.000
  76.000	        26	    1200	     5.099
  76.020	        30	    1200	     5.477
  76.040	        26	    1200	     5.099
  76.060	        21	    1200	     4.583
  76.080	        24	    1200	     4.899
  76.100	        26	    1200	     5.099
  76.120	        30	    1200	     5.477
  76.140	        24	    1200	     4.899
  76.160	        19	    1200	     4.359
  76.180	        24	    1200	     4.899
  76.200	        19	    1200	     4.359
  76.220	        17	    1200	     4.123
  76.240	        28	    1200	     5.292
  76.260	        31	    1200	     5.568
  76.280	        22	    1200	     4.690
  76.300	        34	    1200	     5.831
  76.320	        24	    1200	     4.899
  76.340	        22	    1200	     4.690
  76.360	        25	    1200	     5.000
  76.380	        23	    1200	     4.796
  76.400	        31	    1200	     5.568
  76.420	        24	    1200	     4.899
  76.440	        23	    1200	     4.796
  76.460	        35	    1200	     5.916
  76.480	        33	    1200	     5.745
  76.500	        32	    1200	     5.657
  76.520	        34	    1200	     5.831
  76.540	        25	    1200	     5.000
  76.560	        24	    1200	     4.899
  76.580	        31	    1200	     5.568
  76.600	        21	    1200	     4.583
  76.620	        30	    1200	     5.477
  76.640	        36	    1200	     6.000
  76.660	        42	    1200	     6.481
  76.680	        42	    1200	     6.481
  76.700	        43	    1200	     6.557
  76.720	        48	    1200	     6.928
  76.740	        36	    1200	     6.000
  76.760	        34	    1200	     5.831
  76.780	        34	    1200	     5.831
  76.800	        37	    1200	     6.083
  76.820	        44	    1200	     6.633
  76.840	        36	    1200	     6.000
  76.860	        51	    1200	     7.141
  76.880	        42	    1200	     6.481
  76.900	        50	    1200	     7.071
  76.920	        56	    1200	     7.483
  76.940	        54	    1200	     7.348
  76.960	        56	    1200	     7.483
  76.980	        53	    1200	     7.280
  77.000	        64	    1200	     8.000
  77.020	        70	    1200	     8.367
  77.040	        58	    1200	     7.616
  77.060	        71	    1200	     8.426
  77.080	        70	    1200	     8.367
  77.100	        68	    1200	     8.246
  77.120	        80	    1200	     8.944
  77.140	        85	    1200	     9.220
  77.160	        95	    1200	     9.747
  77.180	        86	    1200	     9.274
  77.200	        86	    1200	     9.274
  77.220	       106	    1200	    10.296
  77.240	       120	    1200	    10.954
  77.260	        94	    1200	     9.695
  77.280	       112	    1200	    10.583
  77.300	       123	    1200	    11.091
  77.320	       148	    1200	    12.166
  77.340	       174	    1200	    13.191
  77.360	       188	    1200	    13.711
  77.380	       189	    1200	    13.748
  77.400	       238	    1200	    15.427
  77.420	       259	    1200	    16.093
  77.440	       267	    1200	    16.340
  77.460	       284	    1200	    16.852
  77.480	       343	    1200	    18.520
  77.500	       371	    1200	    19.261
  77.520	       380	    1200	    19.494
  77.540	       369	    1200	    19.209
  77.560	       341	    1200	    18.466
  77.580	       384	    1200	    19.596
  77.600	       329	    1200	    18.138
  77.620	       387	    1200	    19.672
  77.640	       348	    1200	    18.655
  77.660	       350	    1200	    18.708
  77.680	       334	    1200	    18.276
  77.700	       339	    1200	    18.412
  77.720	       343	    1200	    18.520
  77.740	       310	    1200	    17.607
  77.760	       306	    1200	    17.493
  77.780	       308	    1200	    17.550
  77.800	       282	    1200	    16.793
  77.820	       238	    1200	    15.427
  77.840	       240	    1200	    15.492
  77.860	       198	    1200	    14.071
  77.880	       204	    1200	    14.283
  77.900	       161	    1200	    12.689
  77.920	       154	    1200	    12.410
  77.940	       152	    1200	    12.329
  77.960	       142	    1200	    11.916
  77.980	       128	    1200	    11.314
  78.000	       128	    1200	    11.314
  78.020	       114	    1200	    10.677
  78.040	        94	    1200	     9.695
  78.060	       103	    1200	    10.149
  78.080	        94	    1200	     9.695
  78.100	        84	    1200	     9.165
  78.120	        71	    1200	     8.426
  78.140	        76	    1200	     8.718
  78.160	        78	    1200	     8.832
  78.180	        61	    1200	     7.810
  78.200	        48	    1200	     6.928
  78.220	        65	    1200	     8.062
  78.240	        57	    1200	     7.550
  78.260	        48	    1200	     6.928
  78.280	        45	    1200	     6.708
  78.300	        43	    1200	     6.557
  78.320	        42	    1200	     6.481
  78.340	        54	    1200	     7.348
  78.360	        35	    1200	     5.916
  78.380	        29	    1200	     5.385
  78.400	        37	    1200	     6.083
  78.420	        41	    1200	     6.403
  78.440	        52	    1200	     7.211
  78.460	        30	    1200	     5.477
  78.480	        24	    1200	     4.899
  78.500	        42	    1200	     6.481
  78.520	        28	    1200	     5.292
  78.540	        28	    1200	     5.292
  78.560	        38	    1200	     6.164
  78.580	        34	    1200	     5.831
  78.600	        27	    1200	     5.196
  78.620	        30	    1200	     5.477
  78.640	        31	    1200	     5.568
  78.660	        32	    1200	     5.657
  78.680	        22	    1200	     4.690
  78.700	        21	    1200	     4.583
  78.720	        33	    1200	     5.745
  78.740	        29	    1200	     5.385
  78.760	        30	    1200	     5.477
  78.780	        32	    1200	     5.657
  78.800	        23	    1200	     4.796
  78.820	        29	    1200	     5.385
  78.840	        28	    1200	     5.292
  78.860	        26	    1200	     5.099
  78.880	        31	    1200	     5.568
  78.900	        21	    1200	     4.583
  78.920	        25	    1200	     5.000
  78.940	        30	    1200	     5.477
  78.960	        22	    1200	     4.690
  78.980	        28	    1200	     5.292
  79.000	        22	    1200	     4.690
  79.020	        30	    1200	     5.477
  79.040	        29	    1200	     5.385
  79.060	        28	    1200	     5.292
  79.080	        26	    1200	     5.099
  79.100	        17	    1200	     4.123
  79.120	        11	    1200	     3.317
  79.140	        23	    1200	     4.796
  79.160	        31	    1200	     5.568
  79.180	        16	    1200	     4.000
  79.200	        23	    1200	     4.796
  79.220	        26	    1200	     5.099
  79.240	        39	    1200	     6.245
  79.260	        23	    1200	     4.796
  79.280	        16	    1200	     4.000
  79.300	        27	    1200	     5.196
  79.320	        19	    1200	     4.359
  79.340	        17	    1200	     4.123
  79.360	        19	    1200	     4.359
  79.380	        21	    1200	     4.583
  79.400	        24	    1200	     4.899
  79.420	        22	    1200	     4.690
  79.440	        14	    1200	     3.742
  79.460	        23	    1200	     4.796
  79.480	        12	    1200	     3.464
  79.500	        20	    1200	     4.472
  79.520	        21	    1200	     4.583
  79.540	        30	    1200	     5.477
  79.560	        27	    1200	     5.196
  79.580	        25	    1200	     5.000
  79.600	        25	    1200	     5.000
  79.620	        24	    1200	     4.899
  79.640	        22	    1200	     4.690
  79.660	        29	    1200	     5.385
  79.680	        35	    1200	     5.916
  79.700	        28	    1200	     5.292
  79.720	        20	    1200	     4.472
  79.740	        21	    1200	     4.583
  79.760	        22	    1200	     4.690
  79.780	        24	    1200	     4.899
  79.800	        33	    1200	     5.745
  79.820	        23	    1200	     4.796
  79.840	        29	    1200	     5.385
  79.860	        18	    1200	     4.243
  79.880	        17	    1200	     4.123
  79.900	        21	    1200	     4.583
  79.920	        24	    1200	     4.899
  79.940	        22	    1200	     4.690
  79.960	        16	    1200	     4.000
  79.980	        28	    1200	     5.292
  80.000	        25	    1200	     5.000
  80.020	        21	    1200	     4.583
  80.040	        23	    1200	     4.796
  80.060	        21	    1200	     4.583
  80.080	        17	    1200	     4.123
  80.100	        29	    1200	     5.385
  80.120	        20	    1200	     4.472
  80.140	        21	    1200	     4.583
  80.160	        26	    1200	     5.099
  80.180	        22	    1200	     4.690
  80.200	        22	    1200	     4.690
  80.220	        13	    1200	     3.606
  80.240	        26	    1200	     5.099
  80.260	        20	    1200	     4.472
  80.280	        16	    1200	     4.000
  80.300	        19	    1200	     4.359
  80.320	        21	    1200	     4.583
  80.340	        30	    1200	     5.477
  80.360	        22	    1200	     4.690
  80.380	        26	    1200	     5.099
  80.400	        21	    1200	     4.583
  80.420	        20	    1200	     4.472
  80.440	        21	    1200	     4.583
  80.460	        20	    1200	     4.472
  80.480	        25	    1200	     5.000
  80.500	        16	    1200	     4.000
  80.520	        14	    1200	     3.742
  80.540	        24	    1200	     4.899
  80.560	        21	    1200	     4.583
  80.580	        24	    1200	     4.899
  80.600	        19	    1200	     4.359
  80.620	        27	    1200	     5.196
  80.640	        20	    1200	     4.472
  80.660	        19	    1200	     4.359
  80.680	        28	    1200	     5.292
  80.700	        13	    1200	     3.606
  80.720	        23	    1200	     4.796
  80.740	        17	    1200	     4.123
  80.760	        27	    1200	     5.196
  80.780	        15	    1200	     3.873
  80.800	        23	    1200	     4.796
  80.820	        20	    1200	     4.472
  80.840	        25	    1200	     5.000
  80.860	        25	    1200	     5.000
  80.880	        22	    1200	     4.690
  80.900	        14	    1200	     3.742
  80.920	        19	    1200	     4.359
  80.940	        22	    1200	     4.690
  80.960	        23	    1200	     4.796
  80.980	        21	    1200	     4.583
  81.000	        24	    1200	     4.899
  81.020	        23	    1200	     4.796
  81.040	        25	    1200	     5.000
  81.060	        23	    1200	     4.796
  81.080	        28	    1200	     5.292
  81.100	        20	    1200	     4.472
  81.120	        23	    1200	     4.796
  81.140	        29	    1200	     5.385
  81.160	        25	    1200	     5.000
  81.180	        33	    1200	     5.745
  81.200	        22	    1200	     4.690
  81.220	        36	    1200	     6.000
  81.240	        26	    1200	     5.099
  81.260	        35	    1200	     5.916
  81.280	        17	    1200	     4.123
  81.300	        26	    1200	     5.099
  81.320	        19	    1200	     4.359
  81.340	        23	    1200	     4.796
  81.360	        24	    1200	     4.899
  81.380	        27	    1200	     5.196
  81.400	        34	    1200	     5.831
  81.420	        31	    1200	     5.568
  81.440	        24	    1200	     4.899
  81.460	        31	    1200	     5.568
  81.480	        29	    1200	     5.385
  81.500	        22	    1200	     4.690
  81.520	        22	    1200	     4.690
  81.540	        27	    1200	     5.196
  81.560	        30	    1200	     5.477
  81.580	        24	    1200	     4.899
  81.600	        30	    1200	     5.477
  81.620	        47	    1200	     6.856
  81.640	        39	    1200	     6.245
  81.660	        32	    1200	     5.657
  81.680	        36	    1200	     6.000
  81.700	        41	    1200	     6.403
  81.720	        44	    1200	     6.633
  81.740	        28	    1200	     5.292
  81.760	        42	    1200	     6.481
  81.780	        35	    1200	     5.916
  81.800	        38	    1200	     6.164
  81.820	        48	    1200	     6.928
  81.840	        49	    1200	     7.000
  81.860	        53	    1200	     7.280
  81.880	        41	    1200	     6.403
  81.900	        45	    1200	     6.708
  81.920	        62	    1200	     7.874
  81.940	        64	    1200	     8.000
  81.960	        58	    1200	     7.616
  81.980	        65	    1200	     8.062
  82.000	        73	    1200	     8.544
  82.020	        85	    1200	     9.220
  82.040	        93	    1200	     9.644
  82.060	       116	    1200	    10.770
  82.080	        94	    1200	     9.695
  82.100	       124	    1200	    11.136
  82.120	       105	    1200	    10.247
  82.140	       101	    1200	    10.050
  82.160	       116	    1200	    10.770
  82.180	        95	    1200	     9.747
  82.200	       107	    1200	    10.344
  82.220	        97	    1200	     9.849
  82.240	        80	    1200	     8.944
  82.260	        87	    1200	     9.327
  82.280	        90	    1200	     9.487
  82.300	        89	    1200	     9.434
  82.320	        69	    1200	     8.307
  82.340	        83	    1200	     9.110
  82.360	        82	    1200	     9.055
  82.380	        64	    1200	     8.000
  82.400	        65	    1200	     8.062
  82.420	        65	    1200	     8.062
  82.440	        70	    1200	     8.367
  82.460	        70	    1200	     8.367
  82.480	        53	    1200	     7.280
  82.500	        56	    1200	     7.483
  82.520	        50	    1200	     7.071
  82.540	        58	    1200	     7.616
  82.560	        45	    1200	     6.708
  82.580	        54	    1200	     7.348
  82.600	        42	    1200	     6.481
  82.620	        48	    1200	     6.928
  82.640	        39	    1200	     6.245
  82.660	        41	    1200	     6.403
  82.680	        40	    1200	     6.325
  82.700	        32	    1200	     5.657
  82.720	        33	    1200	     5.745
  82.740	        30	    1200	     5.477
  82.760	        31	    1200	     5.568
  82.780	        17	    1200	     4.123
  82.800	        35	    1200	     5.916
  82.820	        38	    1200	     6.164
  82.840	        35	    1200	     5.916
  82.860	        18	    1200	     4.243
  82.880	        29	    1200	     5.385
  82.900	        28	    1200	     5.292
  82.920	        22	    1200	     4.690
  82.940	        37	    1200	     6.083
  82.960	        25	    1200	     5.000
  82.980	        21	    1200	     4.583
  83.000	        23	    1200	     4.796
  83.020	        25	    1200	     5.000
  83.040	        25	    1200	     5.000
  83.060	        22	    1200	     4.690
  83.080	        27	    1200	     5.196
  83.100	        23	    1200	     4.796
  83.120	        27	    1200	     5.196
  83.140	        18	    1200	     4.243
  83.160	        24	    1200	     4.899
  83.180	        28	    1200	     5.292
  83.200	        18	    1200	     4.243
  83.220	        27	    1200	     5.196
  83.240	        19	    1200	     4.359
  83.260	        26	    1200	     5.099
  83.280	        28	    1200	     5.292
  83.300	        19	    1200	     4.359
  83.320	        20	    1200	     4.472
  83.340	        11	    1200	     3.317
  83.360	        10	    1200	     3.162
  83.380	        27	    1200	     5.196
  83.400	        21	    1200	     4.583
  83.420	        24	    1200	     4.899
  83.440	        27	    1200	     5.196
  83.460	        25	    1200	     5.000
  83.480	        25	    1200	     5.000
  83.500	        18	    1200	     4.243
  83.520	        20	    1200	     4.472
  83.540	        29	    1200	     5.385
  83.560	        22	    1200	     4.690
  83.580	        14	    1200	     3.742
  83.600	        31	    1200	     5.568
  83.620	        22	    1200	     4.690
  83.640	        18	    1200	     4.243
  83.660	        24	    1200	     4.899
  83.680	        21	    1200	     4.583
  83.700	        24	    1200	     4.899
  83.720	        22	    1200	     4.690
  83.740	        17	    1200	     4.123
  83.760	        19	    1200	     4.359
  83.780	        21	    1200	     4.583
  83.800	        18	    1200	     4.243
  83.820	        21	    1200	     4.583
  83.840	        18	    1200	     4.243
  83.860	        19	    1200	     4.359
  83.880	        20	    1200	     4.472
  83.900	        20	    1200	     4.472
  83.920	        14	    1200	     3.742
  83.940	        16	    1200	     4.000
  83.960	        20	    1200	     4.472
  83.980	        24	    1200	     4.899
  84.000	        24	    1200	     4.899
  84.020	        16	    1200	     4.000
  84.040	        25	    1200	     5.000
  84.060	        27	    1200	     5.196
  84.080	        22	    1200	     4.690
  84.100	        26	    1200	     5.099
  84.120	        18	    1200	     4.243
  84.140	        18	    1200	     4.243
  84.160	        23	    1200	     4.796
  84.180	        18	    1200	     4.243
  84.200	        24	    1200	     4.899
  84.220	        21	    1200	     4.583
  84.240	        14	    1200	     3.742
  84.260	        17	    1200	     4.123
  84.280	        23	    1200	     4.796
  84.300	        23	    1200	     4.796
  84.320	        27	    1200	     5.196
  84.340	        16	    1200	     4.000
  84.360	        25	    1200	     5.000
  84.380	        19	    1200	     4.359
  84.400	        18	    1200	     4.243
  84.420	        26	    1200	     5.099
  84.440	        21	    1200	     4.583
  84.460	        21	    1200	     4.583
  84.480	        29	    1200	     5.385
  84.500	        22	    1200	     4.690
  84.520	        27	    1200	     5.196
  84.540	        28	    1200	     5.292
  84.560	        23	    1200	     4.796
  84.580	        18	    1200	     4.243
  84.600	        22	    1200	     4.690
  84.620	        22	    1200	     4.690
  84.640	        19	    1200	     4.359
  84.660	        11	    1200	     3.317
  84.680	        25	    1200	     5.000
  84.700	        15	    1200	     3.873
  84.720	        30	    1200	     5.477
  84.740	        17	    1200	     4.123
  84.760	        20	    1200	     4.472
  84.780	        24	    1200	     4.899
  84.800	        14	    1200	     3.742
  84.820	        18	    1200	     4.243
  84.840	        22	    1200	     4.690
  84.860	        24	    1200	     4.899
  84.880	        24	    1200	     4.899
  84.900	        25	    1200	     5.000
  84.920	        29	    1200	     5.385
  84.940	        28	    1200	     5.292
  84.960	        22	    1200	     4.690
  84.980	        17	    1200	     4.123
  85.000	        22	    1200	     4.690
  85.020	        16	    1200	     4.000
  85.040	        14	    1200	     3.742
  85.060	        16	    1200	     4.000
  85.080	        10	    1200	     3.162
  85.100	        13	    1200	     3.606
  85.120	        21	    1200	     4.583
  85.140	        21	    1200	     4.583
  85.160	        22	    1200	     4.690
  85.180	        23	    1200	     4.796
  85.200	        19	    1200	     4.359
  85.220	        19	    1200	     4.359
  85.240	        26	    1200	     5.099
  85.260	        19	    1200	     4.359
  85.280	        14	    1200	     3.742
  85.300	        22	    1200	     4.690
  85.320	        19	    1200	     4.359
  85.340	        26	    1200	     5.099
  85.360	        23	    1200	     4.796
  85.380	        16	    1200	     4.000
  85.400	        21	    1200	     4.583
  85.420	        17	    1200	     4.123
  85.440	        32	    1200	     5.657
  85.460	        27	    1200	     5.196
  85.480	        18	    1200	     4.243
  85.500	        31	    1200	     5.568
  85.520	        29	    1200	     5.385
  85.540	        28	    1200	     5.292
  85.560	        35	    1200	     5.916
  85.580	        17	    1200	     4.123
  85.600	        21	    1200	     4.583
  85.620	        30	    1200	     5.477
  85.640	        28	    1200	     5.292
  85.660	        20	    1200	     4.472
  85.680	        16	    1200	     4.000
  85.700	        30	    1200	     5.477
  85.720	        26	    1200	     5.099
  85.740	        29	    1200	     5.385
  85.760	        24	    1200	     4.899
  85.780	        26	    1200	     5.099
  85.800	        25	    1200	     5.000
  85.820	        26	    1200	     5.099
  85.840	        31	    1200	     5.568
  85.860	        26	    1200	     5.099
  85.880	        27	    1200	     5.196
  85.900	        30	    1200	     5.477
  85.920	        30	    1200	     5.477
  85.940	        31	    1200	     5.568
  85.960	        24	    1200	     4.899
  85.980	        28	    1200	     5.292
  86.000	        25	    1200	     5.000
  86.020	        27	    1200	     5.196
  86.040	        46	    1200	     6.782
  86.060	        31	    1200	     5.568
  86.080	        37	    1200	     6.083
  86.100	        31	    1200	     5.568
  86.120	        36	    1200	     6.000
  86.140	        31	    1200	     5.568
  86.160	        47	    1200	     6.856
  86.180	        32	    1200	     5.657
  86.200	        41	    1200	     6.403
  86.220	        32	    1200	     5.657
  86.240	        38	    1200	     6.164
  86.260	        41	    1200	     6.403
  86.280	        48	    1200	     6.928
  86.300	        49	    1200	     7.000
  86.320	        56	    1200	     7.483
  86.340	        58	    1200	     7.616
  86.360	        57	    1200	     7.550
  86.380	        55	    1200	     7.416
  86.400	        61	    1200	     7.810
  86.420	        59	    1200	     7.681
  86.440	        78	    1200	     8.832
  86.460	        86	    1200	     9.274
  86.480	        89	    1200	     9.434
  86.500	        97	    1200	     9.849
  86.520	       111	    1200	    10.536
  86.540	       113	    1200	    10.630
  86.560	       121	    1200	    11.000
  86.580	       149	    1200	    12.207
  86.600	       153	    1200	    12.369
  86.620	       166	    1200	    12.884
  86.640	       159	    1200	    12.610
  86.660	       184	    1200	    13.565
  86.680	       171	    1200	    13.077
  86.700	       159	    1200	    12.610
  86.720	       159	    1200	    12.610
  86.740	       161	    1200	    12.689
  86.760	       149	    1200	    12.207
  86.780	       135	    1200	    11.619
  86.800	       140	    1200	    11.832
  86.820	       137	    1200	    11.705
  86.840	       138	    1200	    11.747
  86.860	       137	    1200	    11.705
  86.880	       124	    1200	    11.136
  86.900	       121	    1200	    11.000
  86.920	       127	    1200	    11.269
  86.940	       110	    1200	    10.488
  86.960	       135	    1200	    11.619
  86.980	       120	    1200	    10.954
  87.000	       105	    1200	    10.247
  87.020	       117	    1200	    10.817
  87.040	        85	    1200	     9.220
  87.060	        91	    1200	     9.539
  87.080	        79	    1200	     8.888
  87.100	        73	    1200	     8.544
  87.120	        67	    1200	     8.185
  87.140	        67	    1200	     8.185
  87.160	        61	    1200	     7.810
  87.180	        75	    1200	     8.660
  87.200	        54	    1200	     7.348
  87.220	        42	    1200	     6.481
  87.240	        47	    1200	     6.856
  87.260	        52	    1200	     7.211
  87.280	        55	    1200	     7.416
  87.300	        36	    1200	     6.000
  87.320	        30	    1200	     5.477
  87.340	        45	    1200	     6.708
  87.360	        39	    1200	     6.245
  87.380	        40	    1200	     6.325
  87.400	        33	    1200	     5.745
  87.420	        38	    1200	     6.164
  87.440	        35	    1200	     5.916
  87.460	        34	    1200	     5.831
  87.480	        25	    1200	     5.000
  87.500	        25	    1200	     5.000
  87.520	        31	    1200	     5.568
  87.540	        30	    1200	     5.477
  87.560	        29	    1200	     5.385
  87.580	        36	    1200	     6.000
  87.600	        20	    1200	     4.472
  87.620	        21	    1200	     4.583
  87.640	        18	    1200	     4.243
  87.660	        23	    1200	     4.796
  87.680	        25	    1200	     5.000
  87.700	        20	    1200	     4.472
  87.720	        20	    1200	     4.472
  87.740	        32	    1200	     5.657
  87.760	        26	    1200	     5.099
  87.780	        26	    1200	     5.099
  87.800	        17	    1200	     4.123
  87.820	        21	    1200	     4.583
  87.840	        18	    1200	     4.243
  87.860	        22	    1200	     4.690
  87.880	        27	    1200	     5.196
  87.900	        18	    1200	     4.243
  87.920	        19	    1200	     4.359
  87.940	        14	    1200	     3.742
  87.960	        18	    1200	     4.243
  87.980	        26	    1200	     5.099
  88.000	        22	    1200	     4.690
  88.020	        14	    1200	     3.742
  88.040	        22	    1200	     4.690
  88.060	        28	    1200	     5.292
  88.080	        16	    1200	     4.000
  88.100	        20	    1200	     4.472
  88.120	        25	    1200	     5.000
  88.140	        17	    1200	     4.123
  88.160	        25	    1200	     5.000
  88.180	        30	    1200	     5.477
  88.200	        22	    1200	     4.690
  88.220	        22	    1200	     4.690
  88.240	        23	    1200	     4.796
  88.260	        18	    1200	     4.243
  88.280	        31	    1200	     5.568
  88.300	        20	    1200	     4.472
  88.320	        17	    1200	     4.123
  88.340	        17	    1200	     4.123
  88.360	        20	    1200	     4.472
  88.380	        17	    1200	     4.123
  88.400	        22	    1200	     4.690
  88.420	        11	    1200	     3.317
  88.440	        21	    1200	     4.583
  88.460	        26	    1200	     5.099
  88.480	        24	    1200	     4.899
  88.500	        17	    1200	     4.123
  88.520	        21	    1200	     4.583
  88.540	        11	    1200	     3.317
  88.560	        18	    1200	     4.243
  88.580	        23	    1200	     4.796
  88.600	        19	    1200	     4.359
  88.620	        39	    1200	     6.245
  88.640	        23	    1200	     4.796
  88.660	        23	    1200	     4.796
  88.680	        25	    1200	     5.000
  88.700	        17	    1200	     4.123
  88.720	        16	    1200	     4.000
  88.740	        28	    1200	     5.292
  88.760	        19	    1200	     4.359
  88.780	        14	    1200	     3.742
  88.800	        20	    1200	     4.472
  88.820	        31	    1200	     5.568
  88.840	        22	    1200	     4.690
  88.860	        30	    1200	     5.477
  88.880	        16	    1200	     4.000
  88.900	        22	    1200	     4.690
  88.920	        20	    1200	     4.472
  88.940	        22	    1200	     4.690
  88.960	        22	    1200	     4.690
  88.980	        17	    1200	     4.123
  89.000	        19	    1200	     4.359
  89.020	        19	    1200	     4.359
  89.040	        26	    1200	     5.099
  89.060	        16	    1200	     4.000
  89.080	        19	    1200	     4.359
  89.100	        19	    1200	     4.359
  89.120	        20	    1200	     4.472
  89.140	        22	    1200	     4.690
  89.160	        17	    1200	     4.123
  89.180	        20	    1200	     4.472
  89.200	        15	    1200	     3.873
  89.220	        17	    1200	     4.123
  89.240	        20	    1200	     4.472
  89.260	        20	    1200	     4.472
  89.280	        21	    1200	     4.583
  89.300	        23	    1200	     4.796
  89.320	        21	    1200	     4.583
  89.340	        21	    1200	     4.583
  89.360	        22	    1200	     4.690
  89.380	        22	    1200	     4.690
  89.400	        13	    1200	     3.606
  89.420	        22	    1200	     4.690
  89.440	        18	    1200	     4.243
  89.460	        20	    1200	     4.472
  89.480	        24	    1200	     4.899
  89.500	        24	    1200	     4.899
  89.520	        22	    1200	     4.690
  89.540	        24	    1200	     4.899
  89.560	        21	    1200	     4.583
  89.580	        22	    1200	     4.690
  89.600	        22	    1200	     4.690
  89.620	        14	    1200	     3.742
  89.640	        23	    1200	     4.796
  89.660	        16	    1200	     4.000
  89.680	        18	    1200	     4.243
  89.700	        22	    1200	     4.690
  89.720	        18	    1200	     4.243
  89.740	        15	    1200	     3.873
  89.760	        25	    1200	     5.000
  89.780	        25	    1200	     5.000
  89.800	        22	    1200	     4.690
  89.820	        16	    1200	     4.000
  89.840	        23	    1200	     4.796
  89.860	        20	    1200	     4.472
  89.880	        17	    1200	     4.123
  89.900	        21	    1200	     4.583
  89.920	        22	    1200	     4.690
  89.940	        28	    1200	     5.292
  89.960	        23	    1200	     4.796
  89.980	        22	    1200	     4.690
  90.000	        28	    1200	     5.292
