*FILE_COMMENT ""
*FILE_MD5 ""
*FILE_MEMO ""
*FILE_OPERATOR "Administrator"
*FILE_PACKAGE_NAME ""
*FILE_PART_ID "GeneralMeasurement(BB)"
*FILE_SAMPLE "STF7_50H2_50H2O_72Hr_Dilute"
*FILE_SYSTEM_NAME "SmartLab"
*FILE_TYPE "RAS_RAW"
*FILE_USERGROUP "Administrators"
*FILE_VERSION "1"
*HW_ATTACHMENT_ID "ATT0033"
*HW_ATTACHMENT_NAME "ASC6_Reflection"
*HW_ATTACHMENT_NAME_INTERNAL "ASC6_Reflection"
*HW_COUNTER_ID-0 "CUT0051"
*HW_COUNTER_ID-2 "CMC0020"
*HW_COUNTER_MONOCHRO_ID "CMC0020"
*HW_COUNTER_MONOCHRO_NAME "None"
*HW_COUNTER_MONOCHRO_NAME_INTERNAL "None"
*HW_COUNTER_NAME_INTERNAL "HyPix3000(H)"
*HW_COUNTER_NAME-0 "HyPix3000(H)"
*HW_COUNTER_NAME-1 "None"
*HW_COUNTER_NAME-2 "None"
*HW_COUNTER_PIXEL_SIZE "0.1"
*HW_COUNTER_SELECT_NAME "HyPix3000(H)"
*HW_EXTERNAL_CONTROLLER_NAME "None"
*HW_EXTERNAL_CONTROLLER_NAME_INTERNAL "None"
*HW_GONIOMETER_ID "GON0022"
*HW_GONIOMETER_NAME "StandardInplane"
*HW_GONIOMETER_NAME_INTERNAL "StandardInplaneEnc"
*HW_GONIOMETER_RADIUS-0 "90.0"
*HW_GONIOMETER_RADIUS-1 "114.0"
*HW_GONIOMETER_RADIUS-2 "190.0"
*HW_GONIOMETER_RADIUS-3 "300.0"
*HW_GONIOMETER_RADIUS-4 "187.0"
*HW_GONIOMETER_RADIUS-5 "300.0"
*HW_GONIOMETER_RADIUS-6 "113.0"
*HW_GONIOMETER_RADIUS-7 "331.0"
*HW_I_CBO_ID "CBO0021"
*HW_I_CBO_NAME "CBO"
*HW_I_CBO_NAME_INTERNAL "CBO"
*HW_I_MONOCHRO_ID "ISO0021"
*HW_I_MONOCHRO_NAME "IPS_adaptor"
*HW_I_MONOCHRO_NAME_INTERNAL "IPS_adaptor"
*HW_I_OPT_ID-1 "CBO0021"
*HW_I_OPT_ID-2 "ISL0021"
*HW_I_PRIMARY_NAME_INTERNAL "Standard"
*HW_I_SLIT_ID "ISL0021"
*HW_I_SLIT_NAME "Auto"
*HW_I_SLIT_NAME_INTERNAL "Auto"
*HW_R_ATTENUATER_AUTOMODE "0"
*HW_R_ATTENUATER_ID "ATN0020"
*HW_R_ATTENUATER_NAME "No_unit"
*HW_R_ATTENUATOR_NAME_INTERNAL "No_unit"
*HW_R_OPT_ID-0 "RSS0022"
*HW_R_OPT_ID-1 "RCR0022"
*HW_R_OPT_ID-2 "RSO0021"
*HW_R_OPT_ID-3 "RRS0022"
*HW_R_OPT_ID-4 "ATN0020"
*HW_R_ROD_ID "RCR0022"
*HW_R_ROD_NAME "ROD_adaptor"
*HW_R_ROD_NAME_INTERNAL "ROD_adaptor"
*HW_R_RPS_ID "RSO0021"
*HW_R_RPS_NAME "RPS_adaptor"
*HW_R_RPS_NAME_INTERNAL "RPS_adaptor"
*HW_R_RS_ID "RRS0022"
*HW_R_RS_NAME "Virtual"
*HW_R_RS_NAME_INTERNAL "Virtual"
*HW_R_SS_ID "RSS0022"
*HW_R_SS_NAME "Auto_Zr"
*HW_R_SS_NAME_INTERNAL "Auto_Zr"
*HW_ROBOT_NAME "No_unit"
*HW_ROBOT_NAME_INTERNAL "No_unit"
*HW_SAMPLE_CAMERA_NAME "SampleCamera_Inp"
*HW_SAMPLE_CAMERA_NAME_INTERNAL "SampleCamera_Inp"
*HW_SAMPLE_HOLDER_ID "SMP0023"
*HW_SAMPLE_HOLDER_NAME "Z"
*HW_SAMPLE_HOLDER_NAME_INTERNAL "Z"
*HW_SAMPLE_NAME "ReflectionForASC"
*HW_SAMPLE_NAME_INTERNAL "ReflectionForASC"
*HW_SAMPLE_PLATE_NAME "None"
*HW_SAMPLE_PLATE_NAME_INTERNAL "None"
*HW_SAMPLE_SPACER_NAME "None"
*HW_SAMPLE_SPACER_NAME_INTERNAL "None"
*HW_USERINFO_CATALOG_NO ""
*HW_USERINFO_INSTRUMENT_ID ""
*HW_USERINFO_INSTRUMENT_NAME ""
*HW_USERINFO_INSTRUMENT_NO ""
*HW_USERINFO_MODEL ""
*HW_USERINFO_ORDER_NO ""
*HW_USERINFO_SERIAL_NO ""
*HW_USERINFO_VERIFY_INSTRUMENT_ID "00-07-fe-01-04-5e"
*HW_VER_RCD_COUNTER_UNIT "1.0.1"
*HW_VER_RCD_CPU "3.2.2"
*HW_VER_RCD_FPGA "1.2.3"
*HW_VER_RCD_GONIO_UNIT "6.2.0"
*HW_VER_RCD_INCIDENT_UNIT "6.2.0"
*HW_VER_RCD_RECEIVING_UNIT "6.1.1"
*HW_VER_RCD_TYPE "RINC"
*HW_VER_XGC_CPU "3.2.2"
*HW_VER_XGC_CW "1.3.2"
*HW_VER_XGC_HV "1.3.2"
*HW_VER_XGC_RS1 "1.3.2"
*HW_VER_XGC_RS2 "N/A"
*HW_VER_XGC_RT "N/A"
*HW_VER_XGC_TYPE "RINC"
*HW_XG_CURRENT_UNIT "mA"
*HW_XG_FOCUS "0.4mm x 8mm"
*HW_XG_FOCUS_TYPE "Fine"
*HW_XG_TARGET_ATOMIC_NUMBER "29"
*HW_XG_TARGET_NAME "Cu"
*HW_XG_TYPE "Hermetic"
*HW_XG_VOLTAGE_UNIT "kV"
*HW_XG_WAVE_LENGTH_ALPHA1 "1.540593"
*HW_XG_WAVE_LENGTH_ALPHA2 "1.544414"
*HW_XG_WAVE_LENGTH_BETA "1.392246"
*HW_XG_WAVE_LENGTH_UNIT "Angstrom"
*MEAS_COND_AXIS_NAME_INTERNAL-0 "ThetaS"
*MEAS_COND_AXIS_NAME_INTERNAL-1 "ThetaD"
*MEAS_COND_AXIS_NAME_INTERNAL-10 "PrimaryGeometry"
*MEAS_COND_AXIS_NAME_INTERNAL-100 "CounterMonochromatorKind"
*MEAS_COND_AXIS_NAME_INTERNAL-11 "PrimaryMirrorType"
*MEAS_COND_AXIS_NAME_INTERNAL-12 "CBOType"
*MEAS_COND_AXIS_NAME_INTERNAL-13 "CBO-M"
*MEAS_COND_AXIS_NAME_INTERNAL-14 "CBO"
*MEAS_COND_AXIS_NAME_INTERNAL-15 "SelectionSlitType"
*MEAS_COND_AXIS_NAME_INTERNAL-16 "IncidentSollerSlit"
*MEAS_COND_AXIS_NAME_INTERNAL-17 "ISSType"
*MEAS_COND_AXIS_NAME_INTERNAL-18 "IncidentSlitBox"
*MEAS_COND_AXIS_NAME_INTERNAL-19 "IncidentSlitBox"
*MEAS_COND_AXIS_NAME_INTERNAL-2 "TwoTheta"
*MEAS_COND_AXIS_NAME_INTERNAL-20 "IncidentSlitBox"
*MEAS_COND_AXIS_NAME_INTERNAL-21 "Zs"
*MEAS_COND_AXIS_NAME_INTERNAL-22 "IncidentAxdSlit"
*MEAS_COND_AXIS_NAME_INTERNAL-23 "IncidentAxdSlit"
*MEAS_COND_AXIS_NAME_INTERNAL-24 "IncidentAxdSlit"
*MEAS_COND_AXIS_NAME_INTERNAL-25 "Z"
*MEAS_COND_AXIS_NAME_INTERNAL-26 "DirectBeamStop"
*MEAS_COND_AXIS_NAME_INTERNAL-27 "KnifeEdge"
*MEAS_COND_AXIS_NAME_INTERNAL-28 "Beta"
*MEAS_COND_AXIS_NAME_INTERNAL-29 "Changer"
*MEAS_COND_AXIS_NAME_INTERNAL-3 "Omega"
*MEAS_COND_AXIS_NAME_INTERNAL-30 "ReceivingSlitBox1"
*MEAS_COND_AXIS_NAME_INTERNAL-31 "ReceivingSlitBox1"
*MEAS_COND_AXIS_NAME_INTERNAL-32 "ReceivingSlitBox1"
*MEAS_COND_AXIS_NAME_INTERNAL-33 "Zr"
*MEAS_COND_AXIS_NAME_INTERNAL-34 "Filter"
*MEAS_COND_AXIS_NAME_INTERNAL-35 "PSA"
*MEAS_COND_AXIS_NAME_INTERNAL-36 "ReceivingSollerSlit"
*MEAS_COND_AXIS_NAME_INTERNAL-37 "ReceivingSlitBox2"
*MEAS_COND_AXIS_NAME_INTERNAL-38 "ReceivingSlitBox2"
*MEAS_COND_AXIS_NAME_INTERNAL-39 "ReceivingSlitBox2"
*MEAS_COND_AXIS_NAME_INTERNAL-4 "TwoThetaTheta"
*MEAS_COND_AXIS_NAME_INTERNAL-40 "ModuleSensorType"
*MEAS_COND_AXIS_NAME_INTERNAL-41 "GainMode"
*MEAS_COND_AXIS_NAME_INTERNAL-42 "PHA"
*MEAS_COND_AXIS_NAME_INTERNAL-43 "DetectorBeamStop"
*MEAS_COND_AXIS_NAME_INTERNAL-44 "DetectorFilter"
*MEAS_COND_AXIS_NAME_INTERNAL-45 "DedicatedHolder"
*MEAS_COND_AXIS_NAME_INTERNAL-46 "Target_TargetTime"
*MEAS_COND_AXIS_NAME_INTERNAL-47 "Target_XrayOnTime"
*MEAS_COND_AXIS_NAME_INTERNAL-48 "Target_HVGreaseUpTime"
*MEAS_COND_AXIS_NAME_INTERNAL-49 "Target_IG"
*MEAS_COND_AXIS_NAME_INTERNAL-5 "TwoThetaOmega"
*MEAS_COND_AXIS_NAME_INTERNAL-50 "Target_GP"
*MEAS_COND_AXIS_NAME_INTERNAL-51 "Target_FC"
*MEAS_COND_AXIS_NAME_INTERNAL-52 "HVPS_Bias"
*MEAS_COND_AXIS_NAME_INTERNAL-53 "HVPS_HVPSTime"
*MEAS_COND_AXIS_NAME_INTERNAL-54 "HVPS_Type1Time"
*MEAS_COND_AXIS_NAME_INTERNAL-55 "HVPS_Type2Time"
*MEAS_COND_AXIS_NAME_INTERNAL-56 "HVPS_Type3Time"
*MEAS_COND_AXIS_NAME_INTERNAL-57 "CW_IERTime"
*MEAS_COND_AXIS_NAME_INTERNAL-58 "CW_WaterHose"
*MEAS_COND_AXIS_NAME_INTERNAL-59 "CW_CoolingWater"
*MEAS_COND_AXIS_NAME_INTERNAL-6 "OmegaTwoTheta"
*MEAS_COND_AXIS_NAME_INTERNAL-60 "CW_ECTime"
*MEAS_COND_AXIS_NAME_INTERNAL-61 "CW_Flow1"
*MEAS_COND_AXIS_NAME_INTERNAL-62 "CW_Temperature1"
*MEAS_COND_AXIS_NAME_INTERNAL-63 "CW_Pressure1"
*MEAS_COND_AXIS_NAME_INTERNAL-64 "CW_PressureIn"
*MEAS_COND_AXIS_NAME_INTERNAL-65 "CW_PressureOut"
*MEAS_COND_AXIS_NAME_INTERNAL-66 "CW_Flow2"
*MEAS_COND_AXIS_NAME_INTERNAL-67 "CW_Temperature2"
*MEAS_COND_AXIS_NAME_INTERNAL-68 "CW_Pressure2"
*MEAS_COND_AXIS_NAME_INTERNAL-69 "RE_EnclosureTemp"
*MEAS_COND_AXIS_NAME_INTERNAL-7 "TwoThetaChi"
*MEAS_COND_AXIS_NAME_INTERNAL-70 "RE_EnclosureHummidity"
*MEAS_COND_AXIS_NAME_INTERNAL-71 "RE_CabinetTemp"
*MEAS_COND_AXIS_NAME_INTERNAL-72 "RE_RPTemp"
*MEAS_COND_AXIS_NAME_INTERNAL-73 "RE_ShutterAXrayOnTime"
*MEAS_COND_AXIS_NAME_INTERNAL-74 "RE_ShutterATimes"
*MEAS_COND_AXIS_NAME_INTERNAL-75 "RE_ShutterAOpenCloseTime"
*MEAS_COND_AXIS_NAME_INTERNAL-76 "RE_ShutterACloseOpenTime"
*MEAS_COND_AXIS_NAME_INTERNAL-77 "RE_ShutterBXrayOnTime"
*MEAS_COND_AXIS_NAME_INTERNAL-78 "RE_ShutterBTimes"
*MEAS_COND_AXIS_NAME_INTERNAL-79 "RE_ShutterBOpenCloseTime"
*MEAS_COND_AXIS_NAME_INTERNAL-8 "GonioDirectBeamStop"
*MEAS_COND_AXIS_NAME_INTERNAL-80 "RE_ShutterBCloseOpenTime"
*MEAS_COND_AXIS_NAME_INTERNAL-81 "RE_XrayWarningRamp"
*MEAS_COND_AXIS_NAME_INTERNAL-82 "RE_ShutterAInstallation"
*MEAS_COND_AXIS_NAME_INTERNAL-83 "RE_ShutterARamp"
*MEAS_COND_AXIS_NAME_INTERNAL-84 "RE_ShutterBInstallation"
*MEAS_COND_AXIS_NAME_INTERNAL-85 "RE_ShutterBRamp"
*MEAS_COND_AXIS_NAME_INTERNAL-86 "RE_ExtShutterCLS"
*MEAS_COND_AXIS_NAME_INTERNAL-87 "RE_ExtXrayOFF"
*MEAS_COND_AXIS_NAME_INTERNAL-88 "RE_ExtSafetyCircuit"
*MEAS_COND_AXIS_NAME_INTERNAL-89 "Version_CPU"
*MEAS_COND_AXIS_NAME_INTERNAL-9 "Ts"
*MEAS_COND_AXIS_NAME_INTERNAL-90 "Version_RS1"
*MEAS_COND_AXIS_NAME_INTERNAL-91 "Version_RS2"
*MEAS_COND_AXIS_NAME_INTERNAL-92 "Version_HV"
*MEAS_COND_AXIS_NAME_INTERNAL-93 "Version_CW"
*MEAS_COND_AXIS_NAME_INTERNAL-94 "Version_RT"
*MEAS_COND_AXIS_NAME_INTERNAL-95 "Axis_GoniometerGreaseUp"
*MEAS_COND_AXIS_NAME_INTERNAL-96 "Lens"
*MEAS_COND_AXIS_NAME_INTERNAL-97 "IncidentPrimary"
*MEAS_COND_AXIS_NAME_INTERNAL-98 "IncidentMonochromator"
*MEAS_COND_AXIS_NAME_INTERNAL-99 "ReceivingOptics"
*MEAS_COND_AXIS_NAME-0 "ThetaS"
*MEAS_COND_AXIS_NAME-1 "ThetaD"
*MEAS_COND_AXIS_NAME-10 "PrimaryGeometry"
*MEAS_COND_AXIS_NAME-100 "CounterMonochromatorKind"
*MEAS_COND_AXIS_NAME-11 "PrimaryMirrorType"
*MEAS_COND_AXIS_NAME-12 "CBOType"
*MEAS_COND_AXIS_NAME-13 "CBO-M"
*MEAS_COND_AXIS_NAME-14 "CBO"
*MEAS_COND_AXIS_NAME-15 "SelectionSlitType"
*MEAS_COND_AXIS_NAME-16 "IncidentSollerSlit"
*MEAS_COND_AXIS_NAME-17 "ISSType"
*MEAS_COND_AXIS_NAME-18 "IncidentSlitBox"
*MEAS_COND_AXIS_NAME-19 "IncidentSlitBox-_Axis"
*MEAS_COND_AXIS_NAME-2 "TwoTheta"
*MEAS_COND_AXIS_NAME-20 "SlitDS"
*MEAS_COND_AXIS_NAME-21 "Zs"
*MEAS_COND_AXIS_NAME-22 "IncidentAxdSlit"
*MEAS_COND_AXIS_NAME-23 "LLS"
*MEAS_COND_AXIS_NAME-24 "DHLSlit"
*MEAS_COND_AXIS_NAME-25 "Z"
*MEAS_COND_AXIS_NAME-26 "DirectBeamStop"
*MEAS_COND_AXIS_NAME-27 "KnifeEdge"
*MEAS_COND_AXIS_NAME-28 "Beta"
*MEAS_COND_AXIS_NAME-29 "Changer"
*MEAS_COND_AXIS_NAME-3 "Omega"
*MEAS_COND_AXIS_NAME-30 "ReceivingSlitBox1"
*MEAS_COND_AXIS_NAME-31 "ReceivingSlitBox1-_Axis"
*MEAS_COND_AXIS_NAME-32 "SlitSS"
*MEAS_COND_AXIS_NAME-33 "Zr"
*MEAS_COND_AXIS_NAME-34 "Filter"
*MEAS_COND_AXIS_NAME-35 "PSA"
*MEAS_COND_AXIS_NAME-36 "ReceivingSollerSlit"
*MEAS_COND_AXIS_NAME-37 "ReceivingSlitBox2"
*MEAS_COND_AXIS_NAME-38 "ReceivingSlitBox2-_Axis"
*MEAS_COND_AXIS_NAME-39 "SlitRS"
*MEAS_COND_AXIS_NAME-4 "TwoThetaTheta"
*MEAS_COND_AXIS_NAME-40 "ModuleSensorType"
*MEAS_COND_AXIS_NAME-41 "GainMode"
*MEAS_COND_AXIS_NAME-42 "PHA"
*MEAS_COND_AXIS_NAME-43 "DetectorBeamStop"
*MEAS_COND_AXIS_NAME-44 "DetectorFilter"
*MEAS_COND_AXIS_NAME-45 "DedicatedHolder"
*MEAS_COND_AXIS_NAME-46 "Target_TargetTime"
*MEAS_COND_AXIS_NAME-47 "Target_XrayOnTime"
*MEAS_COND_AXIS_NAME-48 "Target_HVGreaseUpTime"
*MEAS_COND_AXIS_NAME-49 "Target_IG"
*MEAS_COND_AXIS_NAME-5 "TwoThetaOmega"
*MEAS_COND_AXIS_NAME-50 "Target_GP"
*MEAS_COND_AXIS_NAME-51 "Target_FC"
*MEAS_COND_AXIS_NAME-52 "HVPS_Bias"
*MEAS_COND_AXIS_NAME-53 "HVPS_HVPSTime"
*MEAS_COND_AXIS_NAME-54 "HVPS_Type1Time"
*MEAS_COND_AXIS_NAME-55 "HVPS_Type2Time"
*MEAS_COND_AXIS_NAME-56 "HVPS_Type3Time"
*MEAS_COND_AXIS_NAME-57 "CW_IERTime"
*MEAS_COND_AXIS_NAME-58 "CW_WaterHose"
*MEAS_COND_AXIS_NAME-59 "CW_CoolingWater"
*MEAS_COND_AXIS_NAME-6 "OmegaTwoTheta"
*MEAS_COND_AXIS_NAME-60 "CW_ECTime"
*MEAS_COND_AXIS_NAME-61 "CW_Flow1"
*MEAS_COND_AXIS_NAME-62 "CW_Temperature1"
*MEAS_COND_AXIS_NAME-63 "CW_Pressure1"
*MEAS_COND_AXIS_NAME-64 "CW_PressureIn"
*MEAS_COND_AXIS_NAME-65 "CW_PressureOut"
*MEAS_COND_AXIS_NAME-66 "CW_Flow2"
*MEAS_COND_AXIS_NAME-67 "CW_Temperature2"
*MEAS_COND_AXIS_NAME-68 "CW_Pressure2"
*MEAS_COND_AXIS_NAME-69 "RE_EnclosureTemp"
*MEAS_COND_AXIS_NAME-7 "TwoThetaChi"
*MEAS_COND_AXIS_NAME-70 "RE_EnclosureHummidity"
*MEAS_COND_AXIS_NAME-71 "RE_CabinetTemp"
*MEAS_COND_AXIS_NAME-72 "RE_RPTemp"
*MEAS_COND_AXIS_NAME-73 "RE_ShutterAXrayOnTime"
*MEAS_COND_AXIS_NAME-74 "RE_ShutterATimes"
*MEAS_COND_AXIS_NAME-75 "RE_ShutterAOpenCloseTime"
*MEAS_COND_AXIS_NAME-76 "RE_ShutterACloseOpenTime"
*MEAS_COND_AXIS_NAME-77 "RE_ShutterBXrayOnTime"
*MEAS_COND_AXIS_NAME-78 "RE_ShutterBTimes"
*MEAS_COND_AXIS_NAME-79 "RE_ShutterBOpenCloseTime"
*MEAS_COND_AXIS_NAME-8 "GonioDirectBeamStop"
*MEAS_COND_AXIS_NAME-80 "RE_ShutterBCloseOpenTime"
*MEAS_COND_AXIS_NAME-81 "RE_XrayWarningRamp"
*MEAS_COND_AXIS_NAME-82 "RE_ShutterAInstallation"
*MEAS_COND_AXIS_NAME-83 "RE_ShutterARamp"
*MEAS_COND_AXIS_NAME-84 "RE_ShutterBInstallation"
*MEAS_COND_AXIS_NAME-85 "RE_ShutterBRamp"
*MEAS_COND_AXIS_NAME-86 "RE_ExtShutterCLS"
*MEAS_COND_AXIS_NAME-87 "RE_ExtXrayOFF"
*MEAS_COND_AXIS_NAME-88 "RE_ExtSafetyCircuit"
*MEAS_COND_AXIS_NAME-89 "Version_CPU"
*MEAS_COND_AXIS_NAME-9 "Ts"
*MEAS_COND_AXIS_NAME-90 "Version_RS1"
*MEAS_COND_AXIS_NAME-91 "Version_RS2"
*MEAS_COND_AXIS_NAME-92 "Version_HV"
*MEAS_COND_AXIS_NAME-93 "Version_CW"
*MEAS_COND_AXIS_NAME-94 "Version_RT"
*MEAS_COND_AXIS_NAME-95 "Axis_GoniometerGreaseUp"
*MEAS_COND_AXIS_NAME-96 "Lens"
*MEAS_COND_AXIS_NAME-97 "IncidentPrimary"
*MEAS_COND_AXIS_NAME-98 "IncidentMonochromator"
*MEAS_COND_AXIS_NAME-99 "ReceivingOptics"
*MEAS_COND_AXIS_OFFSET-0 "0.0612"
*MEAS_COND_AXIS_OFFSET-1 "0.318"
*MEAS_COND_AXIS_OFFSET-10 "0"
*MEAS_COND_AXIS_OFFSET-100 "0"
*MEAS_COND_AXIS_OFFSET-11 "0"
*MEAS_COND_AXIS_OFFSET-12 "0"
*MEAS_COND_AXIS_OFFSET-13 "0"
*MEAS_COND_AXIS_OFFSET-14 "0"
*MEAS_COND_AXIS_OFFSET-15 "0"
*MEAS_COND_AXIS_OFFSET-16 "0"
*MEAS_COND_AXIS_OFFSET-17 "0"
*MEAS_COND_AXIS_OFFSET-18 "0"
*MEAS_COND_AXIS_OFFSET-19 "0"
*MEAS_COND_AXIS_OFFSET-2 "0.3792"
*MEAS_COND_AXIS_OFFSET-20 "0"
*MEAS_COND_AXIS_OFFSET-21 "0"
*MEAS_COND_AXIS_OFFSET-22 "0"
*MEAS_COND_AXIS_OFFSET-23 "0"
*MEAS_COND_AXIS_OFFSET-24 "0"
*MEAS_COND_AXIS_OFFSET-25 "0"
*MEAS_COND_AXIS_OFFSET-26 "0"
*MEAS_COND_AXIS_OFFSET-27 "0"
*MEAS_COND_AXIS_OFFSET-28 "0"
*MEAS_COND_AXIS_OFFSET-29 "0"
*MEAS_COND_AXIS_OFFSET-3 "0.0612"
*MEAS_COND_AXIS_OFFSET-30 "0"
*MEAS_COND_AXIS_OFFSET-31 "0"
*MEAS_COND_AXIS_OFFSET-32 "0"
*MEAS_COND_AXIS_OFFSET-33 "0"
*MEAS_COND_AXIS_OFFSET-34 "0"
*MEAS_COND_AXIS_OFFSET-35 "0"
*MEAS_COND_AXIS_OFFSET-36 "0"
*MEAS_COND_AXIS_OFFSET-37 "0"
*MEAS_COND_AXIS_OFFSET-38 "0"
*MEAS_COND_AXIS_OFFSET-39 "0"
*MEAS_COND_AXIS_OFFSET-4 "0"
*MEAS_COND_AXIS_OFFSET-40 "0"
*MEAS_COND_AXIS_OFFSET-41 "0"
*MEAS_COND_AXIS_OFFSET-42 "0"
*MEAS_COND_AXIS_OFFSET-43 "0"
*MEAS_COND_AXIS_OFFSET-44 "0"
*MEAS_COND_AXIS_OFFSET-45 "0"
*MEAS_COND_AXIS_OFFSET-46 "0"
*MEAS_COND_AXIS_OFFSET-47 "0"
*MEAS_COND_AXIS_OFFSET-48 "0"
*MEAS_COND_AXIS_OFFSET-49 "0"
*MEAS_COND_AXIS_OFFSET-5 "0"
*MEAS_COND_AXIS_OFFSET-50 "0"
*MEAS_COND_AXIS_OFFSET-51 "0"
*MEAS_COND_AXIS_OFFSET-52 "0"
*MEAS_COND_AXIS_OFFSET-53 "0"
*MEAS_COND_AXIS_OFFSET-54 "0"
*MEAS_COND_AXIS_OFFSET-55 "0"
*MEAS_COND_AXIS_OFFSET-56 "0"
*MEAS_COND_AXIS_OFFSET-57 "0"
*MEAS_COND_AXIS_OFFSET-58 "0"
*MEAS_COND_AXIS_OFFSET-59 "0"
*MEAS_COND_AXIS_OFFSET-6 "0"
*MEAS_COND_AXIS_OFFSET-60 "0"
*MEAS_COND_AXIS_OFFSET-61 "0"
*MEAS_COND_AXIS_OFFSET-62 "0"
*MEAS_COND_AXIS_OFFSET-63 "0"
*MEAS_COND_AXIS_OFFSET-64 "0"
*MEAS_COND_AXIS_OFFSET-65 "0"
*MEAS_COND_AXIS_OFFSET-66 "0"
*MEAS_COND_AXIS_OFFSET-67 "0"
*MEAS_COND_AXIS_OFFSET-68 "0"
*MEAS_COND_AXIS_OFFSET-69 "0"
*MEAS_COND_AXIS_OFFSET-7 "0"
*MEAS_COND_AXIS_OFFSET-70 "0"
*MEAS_COND_AXIS_OFFSET-71 "0"
*MEAS_COND_AXIS_OFFSET-72 "0"
*MEAS_COND_AXIS_OFFSET-73 "0"
*MEAS_COND_AXIS_OFFSET-74 "0"
*MEAS_COND_AXIS_OFFSET-75 "0"
*MEAS_COND_AXIS_OFFSET-76 "0"
*MEAS_COND_AXIS_OFFSET-77 "0"
*MEAS_COND_AXIS_OFFSET-78 "0"
*MEAS_COND_AXIS_OFFSET-79 "0"
*MEAS_COND_AXIS_OFFSET-8 "0"
*MEAS_COND_AXIS_OFFSET-80 "0"
*MEAS_COND_AXIS_OFFSET-81 "0"
*MEAS_COND_AXIS_OFFSET-82 "0"
*MEAS_COND_AXIS_OFFSET-83 "0"
*MEAS_COND_AXIS_OFFSET-84 "0"
*MEAS_COND_AXIS_OFFSET-85 "0"
*MEAS_COND_AXIS_OFFSET-86 "0"
*MEAS_COND_AXIS_OFFSET-87 "0"
*MEAS_COND_AXIS_OFFSET-88 "0"
*MEAS_COND_AXIS_OFFSET-89 "0"
*MEAS_COND_AXIS_OFFSET-9 "0"
*MEAS_COND_AXIS_OFFSET-90 "0"
*MEAS_COND_AXIS_OFFSET-91 "0"
*MEAS_COND_AXIS_OFFSET-92 "0"
*MEAS_COND_AXIS_OFFSET-93 "0"
*MEAS_COND_AXIS_OFFSET-94 "0"
*MEAS_COND_AXIS_OFFSET-95 "0"
*MEAS_COND_AXIS_OFFSET-96 "0"
*MEAS_COND_AXIS_OFFSET-97 "0"
*MEAS_COND_AXIS_OFFSET-98 "0"
*MEAS_COND_AXIS_OFFSET-99 "0"
*MEAS_COND_AXIS_POSITION-0 "45.9789"
*MEAS_COND_AXIS_POSITION-1 "45.9789"
*MEAS_COND_AXIS_POSITION-10 "Right"
*MEAS_COND_AXIS_POSITION-100 "None"
*MEAS_COND_AXIS_POSITION-11 "None"
*MEAS_COND_AXIS_POSITION-12 "Type1"
*MEAS_COND_AXIS_POSITION-13 "0"
*MEAS_COND_AXIS_POSITION-14 "BB"
*MEAS_COND_AXIS_POSITION-15 "Type1"
*MEAS_COND_AXIS_POSITION-16 "Soller_slit_5.0deg"
*MEAS_COND_AXIS_POSITION-17 "Type1"
*MEAS_COND_AXIS_POSITION-18 "2/3deg"
*MEAS_COND_AXIS_POSITION-19 "2.210625"
*MEAS_COND_AXIS_POSITION-2 "91.9578"
*MEAS_COND_AXIS_POSITION-20 "2/3deg"
*MEAS_COND_AXIS_POSITION-21 "0.6000000"
*MEAS_COND_AXIS_POSITION-22 "10mm"
*MEAS_COND_AXIS_POSITION-23 "10mm"
*MEAS_COND_AXIS_POSITION-24 "10mm"
*MEAS_COND_AXIS_POSITION-25 "0.27080"
*MEAS_COND_AXIS_POSITION-26 "Out"
*MEAS_COND_AXIS_POSITION-27 "None"
*MEAS_COND_AXIS_POSITION-29 "3"
*MEAS_COND_AXIS_POSITION-3 "45.9789"
*MEAS_COND_AXIS_POSITION-30 "Open"
*MEAS_COND_AXIS_POSITION-31 "20.000000"
*MEAS_COND_AXIS_POSITION-32 "Open"
*MEAS_COND_AXIS_POSITION-33 "-0.6909375"
*MEAS_COND_AXIS_POSITION-34 "Cu_K-beta"
*MEAS_COND_AXIS_POSITION-35 "PSA_open"
*MEAS_COND_AXIS_POSITION-36 "Soller_slit_5.0deg"
*MEAS_COND_AXIS_POSITION-37 "20.100mm"
*MEAS_COND_AXIS_POSITION-38 "20.1"
*MEAS_COND_AXIS_POSITION-39 "20.100mm"
*MEAS_COND_AXIS_POSITION-4 "91.9578"
*MEAS_COND_AXIS_POSITION-40 "DC"
*MEAS_COND_AXIS_POSITION-41 "Mo-HiC"
*MEAS_COND_AXIS_POSITION-43 "None"
*MEAS_COND_AXIS_POSITION-44 "None"
*MEAS_COND_AXIS_POSITION-45 "None"
*MEAS_COND_AXIS_POSITION-5 "91.9578"
*MEAS_COND_AXIS_POSITION-6 "45.9789"
*MEAS_COND_AXIS_POSITION-7 "0.0000"
*MEAS_COND_AXIS_POSITION-8 "Out"
*MEAS_COND_AXIS_POSITION-9 "0.0000000"
*MEAS_COND_AXIS_POSITION-96 "1"
*MEAS_COND_AXIS_POSITION-97 "Standard"
*MEAS_COND_AXIS_POSITION-98 "IPS_adaptor"
*MEAS_COND_AXIS_POSITION-99 "PSA_open"
*MEAS_COND_AXIS_RESOLUTION-0 "0.0001"
*MEAS_COND_AXIS_RESOLUTION-1 "0.0001"
*MEAS_COND_AXIS_RESOLUTION-10 ""
*MEAS_COND_AXIS_RESOLUTION-11 ""
*MEAS_COND_AXIS_RESOLUTION-12 ""
*MEAS_COND_AXIS_RESOLUTION-13 "1"
*MEAS_COND_AXIS_RESOLUTION-14 ""
*MEAS_COND_AXIS_RESOLUTION-15 ""
*MEAS_COND_AXIS_RESOLUTION-16 ""
*MEAS_COND_AXIS_RESOLUTION-17 ""
*MEAS_COND_AXIS_RESOLUTION-18 "1/1600"
*MEAS_COND_AXIS_RESOLUTION-19 "1/1600"
*MEAS_COND_AXIS_RESOLUTION-2 "0.0001"
*MEAS_COND_AXIS_RESOLUTION-20 "1/1600"
*MEAS_COND_AXIS_RESOLUTION-21 "0.0003125"
*MEAS_COND_AXIS_RESOLUTION-22 ""
*MEAS_COND_AXIS_RESOLUTION-23 ""
*MEAS_COND_AXIS_RESOLUTION-24 ""
*MEAS_COND_AXIS_RESOLUTION-25 "0.00002"
*MEAS_COND_AXIS_RESOLUTION-26 ""
*MEAS_COND_AXIS_RESOLUTION-27 ""
*MEAS_COND_AXIS_RESOLUTION-28 "0.09"
*MEAS_COND_AXIS_RESOLUTION-29 "1"
*MEAS_COND_AXIS_RESOLUTION-3 "0.0001"
*MEAS_COND_AXIS_RESOLUTION-30 "1/1600"
*MEAS_COND_AXIS_RESOLUTION-31 "1/1600"
*MEAS_COND_AXIS_RESOLUTION-32 "1/1600"
*MEAS_COND_AXIS_RESOLUTION-33 "0.0003125"
*MEAS_COND_AXIS_RESOLUTION-34 ""
*MEAS_COND_AXIS_RESOLUTION-35 ""
*MEAS_COND_AXIS_RESOLUTION-36 ""
*MEAS_COND_AXIS_RESOLUTION-37 "0.1"
*MEAS_COND_AXIS_RESOLUTION-38 "0.1"
*MEAS_COND_AXIS_RESOLUTION-39 "0.1"
*MEAS_COND_AXIS_RESOLUTION-4 "0.0002"
*MEAS_COND_AXIS_RESOLUTION-40 ""
*MEAS_COND_AXIS_RESOLUTION-41 ""
*MEAS_COND_AXIS_RESOLUTION-42 "1"
*MEAS_COND_AXIS_RESOLUTION-43 ""
*MEAS_COND_AXIS_RESOLUTION-44 ""
*MEAS_COND_AXIS_RESOLUTION-45 ""
*MEAS_COND_AXIS_RESOLUTION-46 "0.01"
*MEAS_COND_AXIS_RESOLUTION-47 "0.010000"
*MEAS_COND_AXIS_RESOLUTION-48 "0.01"
*MEAS_COND_AXIS_RESOLUTION-49 "1"
*MEAS_COND_AXIS_RESOLUTION-5 "0.0002"
*MEAS_COND_AXIS_RESOLUTION-50 "1"
*MEAS_COND_AXIS_RESOLUTION-51 "0.01"
*MEAS_COND_AXIS_RESOLUTION-52 "1"
*MEAS_COND_AXIS_RESOLUTION-53 "0.01"
*MEAS_COND_AXIS_RESOLUTION-54 "0.01"
*MEAS_COND_AXIS_RESOLUTION-55 "0.01"
*MEAS_COND_AXIS_RESOLUTION-56 "0.01"
*MEAS_COND_AXIS_RESOLUTION-57 "0.010000"
*MEAS_COND_AXIS_RESOLUTION-58 "0.01"
*MEAS_COND_AXIS_RESOLUTION-59 "0.01"
*MEAS_COND_AXIS_RESOLUTION-6 "0.0001"
*MEAS_COND_AXIS_RESOLUTION-60 "1"
*MEAS_COND_AXIS_RESOLUTION-61 "0.100000"
*MEAS_COND_AXIS_RESOLUTION-62 "1.000000"
*MEAS_COND_AXIS_RESOLUTION-63 "0.010000"
*MEAS_COND_AXIS_RESOLUTION-64 "0.01"
*MEAS_COND_AXIS_RESOLUTION-65 "0.01"
*MEAS_COND_AXIS_RESOLUTION-66 "0.1"
*MEAS_COND_AXIS_RESOLUTION-67 "1"
*MEAS_COND_AXIS_RESOLUTION-68 "0.01"
*MEAS_COND_AXIS_RESOLUTION-69 "1.000000"
*MEAS_COND_AXIS_RESOLUTION-7 "0.0005"
*MEAS_COND_AXIS_RESOLUTION-70 "1"
*MEAS_COND_AXIS_RESOLUTION-71 "1.000000"
*MEAS_COND_AXIS_RESOLUTION-72 "1"
*MEAS_COND_AXIS_RESOLUTION-73 "0.01"
*MEAS_COND_AXIS_RESOLUTION-74 "1"
*MEAS_COND_AXIS_RESOLUTION-75 "1"
*MEAS_COND_AXIS_RESOLUTION-76 "1"
*MEAS_COND_AXIS_RESOLUTION-77 "0.01"
*MEAS_COND_AXIS_RESOLUTION-78 "1.000000"
*MEAS_COND_AXIS_RESOLUTION-79 "1.000000"
*MEAS_COND_AXIS_RESOLUTION-8 ""
*MEAS_COND_AXIS_RESOLUTION-80 "1.000000"
*MEAS_COND_AXIS_RESOLUTION-81 "-"
*MEAS_COND_AXIS_RESOLUTION-82 "-"
*MEAS_COND_AXIS_RESOLUTION-83 "-"
*MEAS_COND_AXIS_RESOLUTION-84 "1.000000"
*MEAS_COND_AXIS_RESOLUTION-85 "-"
*MEAS_COND_AXIS_RESOLUTION-86 "-"
*MEAS_COND_AXIS_RESOLUTION-87 "-"
*MEAS_COND_AXIS_RESOLUTION-88 "1.000000"
*MEAS_COND_AXIS_RESOLUTION-89 "1.000000"
*MEAS_COND_AXIS_RESOLUTION-9 "0.0000625"
*MEAS_COND_AXIS_RESOLUTION-90 "1.000000"
*MEAS_COND_AXIS_RESOLUTION-91 "1.000000"
*MEAS_COND_AXIS_RESOLUTION-92 "1.000000"
*MEAS_COND_AXIS_RESOLUTION-93 "1.000000"
*MEAS_COND_AXIS_RESOLUTION-94 "1.000000"
*MEAS_COND_AXIS_RESOLUTION-95 "0.01"
*MEAS_COND_AXIS_RESOLUTION-96 ""
*MEAS_COND_AXIS_SPEED_RESOLUTION-28 "0.1"
*MEAS_COND_AXIS_SPEED_UNIT-28 "rpm"
*MEAS_COND_AXIS_SPEED-28 "10"
*MEAS_COND_AXIS_STATE-0 "Fixed"
*MEAS_COND_AXIS_STATE-1 "Fixed"
*MEAS_COND_AXIS_STATE-10 "Fixed"
*MEAS_COND_AXIS_STATE-11 "Fixed"
*MEAS_COND_AXIS_STATE-12 "Fixed"
*MEAS_COND_AXIS_STATE-13 "Fixed"
*MEAS_COND_AXIS_STATE-14 "Fixed"
*MEAS_COND_AXIS_STATE-15 "Fixed"
*MEAS_COND_AXIS_STATE-16 "Fixed"
*MEAS_COND_AXIS_STATE-17 "Fixed"
*MEAS_COND_AXIS_STATE-18 "Fixed"
*MEAS_COND_AXIS_STATE-19 "Fixed"
*MEAS_COND_AXIS_STATE-2 "Fixed"
*MEAS_COND_AXIS_STATE-20 "Fixed"
*MEAS_COND_AXIS_STATE-21 "Fixed"
*MEAS_COND_AXIS_STATE-22 "Fixed"
*MEAS_COND_AXIS_STATE-23 "Fixed"
*MEAS_COND_AXIS_STATE-24 "Fixed"
*MEAS_COND_AXIS_STATE-25 "Fixed"
*MEAS_COND_AXIS_STATE-26 "Fixed"
*MEAS_COND_AXIS_STATE-27 "Fixed"
*MEAS_COND_AXIS_STATE-28 "Rotation"
*MEAS_COND_AXIS_STATE-29 "Fixed"
*MEAS_COND_AXIS_STATE-3 "Fixed"
*MEAS_COND_AXIS_STATE-30 "Fixed"
*MEAS_COND_AXIS_STATE-31 "Fixed"
*MEAS_COND_AXIS_STATE-32 "Fixed"
*MEAS_COND_AXIS_STATE-33 "Fixed"
*MEAS_COND_AXIS_STATE-34 "Fixed"
*MEAS_COND_AXIS_STATE-35 "Fixed"
*MEAS_COND_AXIS_STATE-36 "Fixed"
*MEAS_COND_AXIS_STATE-37 "Fixed"
*MEAS_COND_AXIS_STATE-38 "Fixed"
*MEAS_COND_AXIS_STATE-39 "Fixed"
*MEAS_COND_AXIS_STATE-4 "Scan"
*MEAS_COND_AXIS_STATE-40 "Fixed"
*MEAS_COND_AXIS_STATE-41 "Fixed"
*MEAS_COND_AXIS_STATE-42 "Fixed"
*MEAS_COND_AXIS_STATE-43 "Fixed"
*MEAS_COND_AXIS_STATE-44 "Fixed"
*MEAS_COND_AXIS_STATE-45 "Fixed"
*MEAS_COND_AXIS_STATE-46 "Fixed"
*MEAS_COND_AXIS_STATE-47 "Fixed"
*MEAS_COND_AXIS_STATE-48 "Fixed"
*MEAS_COND_AXIS_STATE-49 "Fixed"
*MEAS_COND_AXIS_STATE-5 "Fixed"
*MEAS_COND_AXIS_STATE-50 "Fixed"
*MEAS_COND_AXIS_STATE-51 "Fixed"
*MEAS_COND_AXIS_STATE-52 "Fixed"
*MEAS_COND_AXIS_STATE-53 "Fixed"
*MEAS_COND_AXIS_STATE-54 "Fixed"
*MEAS_COND_AXIS_STATE-55 "Fixed"
*MEAS_COND_AXIS_STATE-56 "Fixed"
*MEAS_COND_AXIS_STATE-57 "Fixed"
*MEAS_COND_AXIS_STATE-58 "Fixed"
*MEAS_COND_AXIS_STATE-59 "Fixed"
*MEAS_COND_AXIS_STATE-6 "Fixed"
*MEAS_COND_AXIS_STATE-60 "Fixed"
*MEAS_COND_AXIS_STATE-61 "Fixed"
*MEAS_COND_AXIS_STATE-62 "Fixed"
*MEAS_COND_AXIS_STATE-63 "Fixed"
*MEAS_COND_AXIS_STATE-64 "Fixed"
*MEAS_COND_AXIS_STATE-65 "Fixed"
*MEAS_COND_AXIS_STATE-66 "Fixed"
*MEAS_COND_AXIS_STATE-67 "Fixed"
*MEAS_COND_AXIS_STATE-68 "Fixed"
*MEAS_COND_AXIS_STATE-69 "Fixed"
*MEAS_COND_AXIS_STATE-7 "Fixed"
*MEAS_COND_AXIS_STATE-70 "Fixed"
*MEAS_COND_AXIS_STATE-71 "Fixed"
*MEAS_COND_AXIS_STATE-72 "Fixed"
*MEAS_COND_AXIS_STATE-73 "Fixed"
*MEAS_COND_AXIS_STATE-74 "Fixed"
*MEAS_COND_AXIS_STATE-75 "Fixed"
*MEAS_COND_AXIS_STATE-76 "Fixed"
*MEAS_COND_AXIS_STATE-77 "Fixed"
*MEAS_COND_AXIS_STATE-78 "Fixed"
*MEAS_COND_AXIS_STATE-79 "Fixed"
*MEAS_COND_AXIS_STATE-8 "Fixed"
*MEAS_COND_AXIS_STATE-80 "Fixed"
*MEAS_COND_AXIS_STATE-81 "Fixed"
*MEAS_COND_AXIS_STATE-82 "Fixed"
*MEAS_COND_AXIS_STATE-83 "Fixed"
*MEAS_COND_AXIS_STATE-84 "Fixed"
*MEAS_COND_AXIS_STATE-85 "Fixed"
*MEAS_COND_AXIS_STATE-86 "Fixed"
*MEAS_COND_AXIS_STATE-87 "Fixed"
*MEAS_COND_AXIS_STATE-88 "Fixed"
*MEAS_COND_AXIS_STATE-89 "Fixed"
*MEAS_COND_AXIS_STATE-9 "Fixed"
*MEAS_COND_AXIS_STATE-90 "Fixed"
*MEAS_COND_AXIS_STATE-91 "Fixed"
*MEAS_COND_AXIS_STATE-92 "Fixed"
*MEAS_COND_AXIS_STATE-93 "Fixed"
*MEAS_COND_AXIS_STATE-94 "Fixed"
*MEAS_COND_AXIS_STATE-95 "Fixed"
*MEAS_COND_AXIS_STATE-96 "Fixed"
*MEAS_COND_AXIS_UNIT-0 "deg"
*MEAS_COND_AXIS_UNIT-1 "deg"
*MEAS_COND_AXIS_UNIT-10 ""
*MEAS_COND_AXIS_UNIT-100 ""
*MEAS_COND_AXIS_UNIT-11 ""
*MEAS_COND_AXIS_UNIT-12 ""
*MEAS_COND_AXIS_UNIT-13 "pulse"
*MEAS_COND_AXIS_UNIT-14 ""
*MEAS_COND_AXIS_UNIT-15 ""
*MEAS_COND_AXIS_UNIT-16 ""
*MEAS_COND_AXIS_UNIT-17 ""
*MEAS_COND_AXIS_UNIT-18 ""
*MEAS_COND_AXIS_UNIT-19 "mm"
*MEAS_COND_AXIS_UNIT-2 "deg"
*MEAS_COND_AXIS_UNIT-20 ""
*MEAS_COND_AXIS_UNIT-21 "mm"
*MEAS_COND_AXIS_UNIT-22 ""
*MEAS_COND_AXIS_UNIT-23 ""
*MEAS_COND_AXIS_UNIT-24 ""
*MEAS_COND_AXIS_UNIT-25 "mm"
*MEAS_COND_AXIS_UNIT-26 ""
*MEAS_COND_AXIS_UNIT-27 ""
*MEAS_COND_AXIS_UNIT-28 "deg"
*MEAS_COND_AXIS_UNIT-29 ""
*MEAS_COND_AXIS_UNIT-3 "deg"
*MEAS_COND_AXIS_UNIT-30 ""
*MEAS_COND_AXIS_UNIT-31 "mm"
*MEAS_COND_AXIS_UNIT-32 ""
*MEAS_COND_AXIS_UNIT-33 "mm"
*MEAS_COND_AXIS_UNIT-34 ""
*MEAS_COND_AXIS_UNIT-35 ""
*MEAS_COND_AXIS_UNIT-36 ""
*MEAS_COND_AXIS_UNIT-37 ""
*MEAS_COND_AXIS_UNIT-38 "mm"
*MEAS_COND_AXIS_UNIT-39 ""
*MEAS_COND_AXIS_UNIT-4 "deg"
*MEAS_COND_AXIS_UNIT-40 ""
*MEAS_COND_AXIS_UNIT-41 ""
*MEAS_COND_AXIS_UNIT-42 "keV"
*MEAS_COND_AXIS_UNIT-43 ""
*MEAS_COND_AXIS_UNIT-44 ""
*MEAS_COND_AXIS_UNIT-45 ""
*MEAS_COND_AXIS_UNIT-46 "H"
*MEAS_COND_AXIS_UNIT-47 "H"
*MEAS_COND_AXIS_UNIT-48 "H"
*MEAS_COND_AXIS_UNIT-49 "mV"
*MEAS_COND_AXIS_UNIT-5 "deg"
*MEAS_COND_AXIS_UNIT-50 "V"
*MEAS_COND_AXIS_UNIT-51 "V"
*MEAS_COND_AXIS_UNIT-52 "V"
*MEAS_COND_AXIS_UNIT-53 "H"
*MEAS_COND_AXIS_UNIT-54 "H"
*MEAS_COND_AXIS_UNIT-55 "H"
*MEAS_COND_AXIS_UNIT-56 "H"
*MEAS_COND_AXIS_UNIT-57 "H"
*MEAS_COND_AXIS_UNIT-58 "H"
*MEAS_COND_AXIS_UNIT-59 "H"
*MEAS_COND_AXIS_UNIT-6 "deg"
*MEAS_COND_AXIS_UNIT-60 "uS/m"
*MEAS_COND_AXIS_UNIT-61 "L/min"
*MEAS_COND_AXIS_UNIT-62 "degree"
*MEAS_COND_AXIS_UNIT-63 "MPa"
*MEAS_COND_AXIS_UNIT-64 "MPa"
*MEAS_COND_AXIS_UNIT-65 "MPa"
*MEAS_COND_AXIS_UNIT-66 "L/min"
*MEAS_COND_AXIS_UNIT-67 "C"
*MEAS_COND_AXIS_UNIT-68 "MPa"
*MEAS_COND_AXIS_UNIT-69 "degree"
*MEAS_COND_AXIS_UNIT-7 "deg"
*MEAS_COND_AXIS_UNIT-70 "percent"
*MEAS_COND_AXIS_UNIT-71 "degree"
*MEAS_COND_AXIS_UNIT-72 "C"
*MEAS_COND_AXIS_UNIT-73 "H"
*MEAS_COND_AXIS_UNIT-74 "time"
*MEAS_COND_AXIS_UNIT-75 "msec"
*MEAS_COND_AXIS_UNIT-76 "msec"
*MEAS_COND_AXIS_UNIT-77 "H"
*MEAS_COND_AXIS_UNIT-78 "times"
*MEAS_COND_AXIS_UNIT-79 "msec"
*MEAS_COND_AXIS_UNIT-8 ""
*MEAS_COND_AXIS_UNIT-80 "msec"
*MEAS_COND_AXIS_UNIT-81 "-"
*MEAS_COND_AXIS_UNIT-82 "-"
*MEAS_COND_AXIS_UNIT-83 "-"
*MEAS_COND_AXIS_UNIT-84 ""
*MEAS_COND_AXIS_UNIT-85 "-"
*MEAS_COND_AXIS_UNIT-86 "-"
*MEAS_COND_AXIS_UNIT-87 "-"
*MEAS_COND_AXIS_UNIT-88 ""
*MEAS_COND_AXIS_UNIT-89 ""
*MEAS_COND_AXIS_UNIT-9 "mm"
*MEAS_COND_AXIS_UNIT-90 ""
*MEAS_COND_AXIS_UNIT-91 ""
*MEAS_COND_AXIS_UNIT-92 ""
*MEAS_COND_AXIS_UNIT-93 ""
*MEAS_COND_AXIS_UNIT-94 ""
*MEAS_COND_AXIS_UNIT-95 "H"
*MEAS_COND_AXIS_UNIT-96 ""
*MEAS_COND_AXIS_UNIT-97 ""
*MEAS_COND_AXIS_UNIT-98 ""
*MEAS_COND_AXIS_UNIT-99 ""
*MEAS_COND_COUNTER_CENTER_X "382.5"
*MEAS_COND_COUNTER_CENTER_Y "197.5"
*MEAS_COND_COUNTER_COUNTMODE "Differential"
*MEAS_COND_COUNTER_DEADTIMECORRECTION "Enabled"
*MEAS_COND_COUNTER_DISTANCE "300"
*MEAS_COND_COUNTER_ENERGYMODE "XRFReduction"
*MEAS_COND_COUNTER_INTEGRALMODE "Line"
*MEAS_COND_COUNTER_PHA_UNIT "keV"
*MEAS_COND_COUNTER_PHABASE "7.0"
*MEAS_COND_COUNTER_PHAWINDOW "5.0"
*MEAS_COND_COUNTER_PITCH_X "0.1"
*MEAS_COND_COUNTER_PITCH_Y "0.1"
*MEAS_COND_COUNTER_PITCHUNIT "mm"
*MEAS_COND_COUNTER_VALIDWIDTH_X "200"
*MEAS_COND_COUNTER_VALIDWIDTH_Y "201"
*MEAS_COND_OPT_ATTR "BB"
*MEAS_COND_OPT_NAME "User defined settings"
*MEAS_COND_XG_CURRENT "35"
*MEAS_COND_XG_VOLTAGE "40"
*MEAS_COND_XG_WAVE_TYPE "Ka"
*MEAS_DATA_COUNT "7501"
*MEAS_SCAN_AXIS_X "TwoThetaTheta"
*MEAS_SCAN_AXIS_X_INTERNAL "TwoThetaTheta"
*MEAS_SCAN_END_TIME "07/14/2023 12:44:43"
*MEAS_SCAN_MODE "CONTINUOUS"
*MEAS_SCAN_MODE_INTERNAL "TDI_1D"
*MEAS_SCAN_RESOLUTION_X "0.0002"
*MEAS_SCAN_SPEED "4.0000"
*MEAS_SCAN_SPEED_UNIT "deg/min"
*MEAS_SCAN_START "15.0000"
*MEAS_SCAN_START_TIME "07/14/2023 12:24:32"
*MEAS_SCAN_STEP "0.0100"
*MEAS_SCAN_STOP "90.0000"
*MEAS_SCAN_UNEQUALY_SPACED "False"
*MEAS_SCAN_UNIT_X "deg"
*MEAS_SCAN_UNIT_Y "cps"
#Intensity_unit=cps
#Attenuator_coefficient=1.0000
15.0000 17933.9778
15.0100 18142.5000
15.0200 17911.2126
15.0300 18255.2408
15.0400 18325.7796
15.0500 18001.2304
15.0600 18166.5902
15.0700 18600.4882
15.0800 18150.8578
15.0900 18146.4762
15.1000 17830.3060
15.1100 17780.0684
15.1200 18077.8710
15.1300 17664.7038
15.1400 18481.4420
15.1500 18158.2828
15.1600 18278.8932
15.1700 17817.9574
15.1800 18182.3552
15.1900 18227.4348
15.2000 17805.4606
15.2100 17874.3538
15.2200 17666.7806
15.2300 17849.3116
15.2400 18344.0528
15.2500 17850.0992
15.2600 17767.0052
15.2700 17743.5026
15.2800 17921.8164
15.2900 18012.0118
15.3000 17661.0482
15.3100 17798.5384
15.3200 17916.0156
15.3300 17852.8922
15.3400 17586.3640
15.3500 17187.8012
15.3600 17619.8128
15.3700 17936.3558
15.3800 17076.6602
15.3900 17550.0764
15.4000 17516.5040
15.4100 17900.9944
15.4200 17483.2242
15.4300 18540.0652
15.4400 17580.5014
15.4500 17735.9734
15.4600 17561.4828
15.4700 17235.1954
15.4800 17659.6272
15.4900 17194.2366
15.5000 17248.5970
15.5100 17051.2598
15.5200 17627.6432
15.5300 17848.6296
15.5400 17151.5918
15.5500 17154.1488
15.5600 17483.3040
15.5700 17465.1220
15.5800 16627.9524
15.5900 17053.2812
15.6000 17281.5250
15.6100 17096.2614
15.6200 17370.7926
15.6300 17031.5120
15.6400 17184.5850
15.6500 16994.6924
15.6600 17326.3688
15.6700 17503.2032
15.6800 17266.3216
15.6900 16889.1210
15.7000 17139.0250
15.7100 17376.5722
15.7200 17390.6608
15.7300 16864.3474
15.7400 17364.3098
15.7500 17382.3536
15.7600 16785.4492
15.7700 17275.0716
15.7800 17154.3978
15.7900 17266.1588
15.8000 17160.9392
15.8100 17247.8012
15.8200 16911.0172
15.8300 17330.3320
15.8400 17383.2568
15.8500 17205.2572
15.8600 16941.2434
15.8700 17241.8050
15.8800 17176.3704
15.8900 17471.8734
15.9000 17140.8024
15.9100 17039.2448
15.9200 17133.8884
15.9300 17623.0616
15.9400 17154.1438
15.9500 16868.6962
15.9600 16433.2032
15.9700 17151.9092
15.9800 16920.4264
15.9900 17526.9270
16.0000 16975.8366
16.0100 17050.4200
16.0200 17026.6260
16.0300 16752.7246
16.0400 16840.7340
16.0500 16369.4010
16.0600 16721.1166
16.0700 16983.6866
16.0800 16480.2376
16.0900 16567.4708
16.1000 16987.0084
16.1100 17229.6272
16.1200 16763.0550
16.1300 16639.6598
16.1400 17263.9974
16.1500 17293.2276
16.1600 17086.4192
16.1700 17040.1074
16.1800 16303.2992
16.1900 16514.2610
16.2000 17180.1416
16.2100 16391.6244
16.2200 16562.4040
16.2300 16875.6380
16.2400 17292.8190
16.2500 16652.8434
16.2600 17488.8688
16.2700 16902.1176
16.2800 16661.0206
16.2900 16599.0250
16.3000 16444.4792
16.3100 17001.1214
16.3200 16387.5944
16.3300 16631.9612
16.3400 16149.1814
16.3500 16015.7356
16.3600 16512.8988
16.3700 16393.2764
16.3800 17353.4522
16.3900 16841.3770
16.4000 16707.2852
16.4100 16421.7854
16.4200 16503.3186
16.4300 17063.5888
16.4400 16505.7324
16.4500 16453.0746
16.4600 16491.0872
16.4700 16548.6002
16.4800 16523.2390
16.4900 16474.7200
16.5000 16786.2566
16.5100 16643.6264
16.5200 16855.5940
16.5300 15841.3200
16.5400 16643.2324
16.5500 16929.3310
16.5600 16629.6924
16.5700 16268.4944
16.5800 16349.6892
16.5900 16154.6012
16.6000 15936.3606
16.6100 15724.8990
16.6200 16421.9434
16.6300 15827.0898
16.6400 16241.3624
16.6500 16572.4674
16.6600 16652.5618
16.6700 15859.9398
16.6800 15837.4512
16.6900 15799.4726
16.7000 16089.8404
16.7100 15944.8518
16.7200 16044.5394
16.7300 16251.6456
16.7400 16036.8668
16.7500 16128.9258
16.7600 16500.8448
16.7700 15971.7838
16.7800 16092.0346
16.7900 16374.6696
16.8000 15975.9050
16.8100 15631.6700
16.8200 15754.1194
16.8300 16118.9730
16.8400 15977.0736
16.8500 16325.7992
16.8600 15985.7992
16.8700 15934.6908
16.8800 15472.7230
16.8900 15555.4508
16.9000 16171.6976
16.9100 15666.6178
16.9200 15944.2676
16.9300 15280.7780
16.9400 16199.4646
16.9500 16200.1856
16.9600 16214.9218
16.9700 16047.8272
16.9800 15780.2294
16.9900 15415.1954
17.0000 15812.4512
17.0100 15510.5486
17.0200 16005.3092
17.0300 16201.0108
17.0400 15450.4264
17.0500 15795.3434
17.0600 15572.5928
17.0700 15407.8190
17.0800 15789.3506
17.0900 15368.2552
17.1000 15701.0710
17.1100 15978.5970
17.1200 15489.7640
17.1300 15203.8248
17.1400 15291.8230
17.1500 15121.5674
17.1600 15891.6504
17.1700 15365.9294
17.1800 15273.2210
17.1900 15019.1488
17.2000 15554.2154
17.2100 15617.6644
17.2200 16368.6622
17.2300 15702.8450
17.2400 15299.8616
17.2500 15592.5244
17.2600 15791.8588
17.2700 15868.5758
17.2800 15714.6664
17.2900 15769.0040
17.3000 15419.0120
17.3100 15058.7712
17.3200 15153.7728
17.3300 14996.7758
17.3400 14892.9704
17.3500 15104.4320
17.3600 15389.5834
17.3700 15516.5738
17.3800 15792.8142
17.3900 14852.5618
17.4000 15370.2702
17.4100 15131.7496
17.4200 15158.4620
17.4300 15382.4788
17.4400 15381.5316
17.4500 15683.7940
17.4600 15404.4710
17.4700 15642.0150
17.4800 15200.8318
17.4900 15014.5572
17.5000 15043.7680
17.5100 15328.9030
17.5200 15201.9808
17.5300 15272.2152
17.5400 15161.1214
17.5500 15269.4726
17.5600 15877.9248
17.5700 15754.3994
17.5800 15658.9568
17.5900 14931.8684
17.6000 15174.6874
17.6100 15128.1788
17.6200 14756.6130
17.6300 15183.4016
17.6400 14973.3186
17.6500 15029.3668
17.6600 14483.7338
17.6700 14800.8106
17.6800 15127.1272
17.6900 15444.0088
17.7000 15355.2246
17.7100 14554.4270
17.7200 14884.8356
17.7300 14744.1488
17.7400 14993.4050
17.7500 14462.3030
17.7600 14855.1986
17.7700 14877.8728
17.7800 14452.4268
17.7900 14926.9140
17.8000 15067.4382
17.8100 14794.5768
17.8200 14509.1650
17.8300 14628.2878
17.8400 15155.8252
17.8500 14940.5468
17.8600 14187.7750
17.8700 14798.0240
17.8800 14529.9968
17.8900 14319.8812
17.9000 14796.2728
17.9100 14706.6194
17.9200 14497.3014
17.9300 14477.0118
17.9400 14460.7226
17.9500 14680.9228
17.9600 14921.4454
17.9700 14564.9984
17.9800 14541.5494
17.9900 14948.5254
18.0000 14387.5406
18.0100 14649.6582
18.0200 14497.9264
18.0300 14602.4186
18.0400 14765.0520
18.0500 14544.5556
18.0600 14629.2382
18.0700 14534.3506
18.0800 14533.6328
18.0900 14017.5228
18.1000 14542.8124
18.1100 14246.0172
18.1200 14422.2428
18.1300 14346.4860
18.1400 15234.3474
18.1500 15005.7178
18.1600 14423.9096
18.1700 14406.7514
18.1800 14656.6960
18.1900 14162.9232
18.2000 14228.4034
18.2100 14560.7128
18.2200 14396.2744
18.2300 14347.8988
18.2400 14778.2128
18.2500 14564.8926
18.2600 13963.6848
18.2700 14311.8050
18.2800 14607.7962
18.2900 14036.1686
18.3000 14815.3288
18.3100 14283.2748
18.3200 14543.3008
18.3300 14339.4612
18.3400 14303.8542
18.3500 13823.0746
18.3600 14313.7208
18.3700 14313.9046
18.3800 13899.9088
18.3900 13951.5902
18.4000 14265.7796
18.4100 14011.9482
18.4200 14150.1692
18.4300 14276.9304
18.4400 14479.4906
18.4500 14551.9450
18.4600 13720.3760
18.4700 14021.1702
18.4800 14674.3506
18.4900 13590.4354
18.5000 13885.4802
18.5100 13806.5022
18.5200 14095.4768
18.5300 14422.9948
18.5400 14365.4720
18.5500 14223.1868
18.5600 13793.7028
18.5700 13678.6946
18.5800 14225.9636
18.5900 14126.4568
18.6000 14619.7624
18.6100 14242.0198
18.6200 13986.5072
18.6300 13531.1158
18.6400 13481.0668
18.6500 14011.3624
18.6600 13638.7158
18.6700 13912.4708
18.6800 14341.3932
18.6900 13635.2564
18.7000 14060.2962
18.7100 14037.4772
18.7200 14025.6396
18.7300 13439.9308
18.7400 13599.1886
18.7500 13992.9118
18.7600 13890.5160
18.7700 14067.2836
18.7800 13439.6460
18.7900 13924.1504
18.8000 13817.9996
18.8100 13708.6832
18.8200 14160.3842
18.8300 13765.2246
18.8400 13536.8684
18.8500 13900.1498
18.8600 13691.5104
18.8700 13664.6762
18.8800 13136.6000
18.8900 13291.1474
18.9000 13614.8380
18.9100 13494.2432
18.9200 13770.2750
18.9300 13664.7574
18.9400 13516.5576
18.9500 13688.9290
18.9600 13881.7122
18.9700 14027.6822
18.9800 13392.3886
18.9900 13570.9880
19.0000 13601.0376
19.0100 13768.4000
19.0200 13276.8946
19.0300 13231.5600
19.0400 13991.8832
19.0500 13534.1114
19.0600 13857.9948
19.0700 13665.6950
19.0800 13589.2146
19.0900 13145.1822
19.1000 13510.7862
19.1100 13689.3116
19.1200 13732.0768
19.1300 13477.1264
19.1400 13345.0586
19.1500 13863.4864
19.1600 13491.4958
19.1700 13498.6174
19.1800 13372.7994
19.1900 13470.3370
19.2000 13600.3898
19.2100 13638.0704
19.2200 13034.2732
19.2300 13501.7684
19.2400 13545.4542
19.2500 13994.8160
19.2600 13409.9308
19.2700 13229.1284
19.2800 13317.0174
19.2900 13371.0914
19.3000 13483.3106
19.3100 12861.3736
19.3200 13075.2686
19.3300 13427.9980
19.3400 13479.1472
19.3500 13660.6088
19.3600 13836.1848
19.3700 13733.5222
19.3800 13157.9020
19.3900 13104.8730
19.4000 13292.4462
19.4100 13273.9144
19.4200 13473.0722
19.4300 13310.0090
19.4400 12914.5800
19.4500 13216.1116
19.4600 12370.2190
19.4700 13239.1138
19.4800 13285.0268
19.4900 13080.6600
19.5000 13066.6984
19.5100 12999.5972
19.5200 13149.4506
19.5300 12834.9284
19.5400 12863.0770
19.5500 13192.9452
19.5600 13164.4832
19.5700 13207.5684
19.5800 13019.6020
19.5900 12744.4996
19.6000 13018.7834
19.6100 12877.2102
19.6200 12526.0800
19.6300 12932.9818
19.6400 12282.5968
19.6500 12851.9784
19.6600 13060.9830
19.6700 13162.4650
19.6800 12616.0930
19.6900 13032.2950
19.7000 12834.7542
19.7100 12884.2976
19.7200 12909.1984
19.7300 13147.1256
19.7400 13189.0748
19.7500 12815.9188
19.7600 12756.8758
19.7700 12965.3304
19.7800 13102.1924
19.7900 12935.6038
19.8000 12880.3386
19.8100 13142.3168
19.8200 12859.7828
19.8300 12582.2094
19.8400 12901.5388
19.8500 12869.6770
19.8600 12786.3322
19.8700 12968.3992
19.8800 12479.8072
19.8900 12925.6462
19.9000 12571.5616
19.9100 12158.3658
19.9200 12799.2074
19.9300 12641.3412
19.9400 12742.4992
19.9500 12957.1696
19.9600 12389.2114
19.9700 12906.3306
19.9800 12521.5324
19.9900 13344.1334
20.0000 13003.3520
20.0100 12841.9914
20.0200 12765.0668
20.0300 12578.2056
20.0400 12418.8720
20.0500 12339.3310
20.0600 12302.9052
20.0700 12506.6284
20.0800 12666.1988
20.0900 12649.9512
20.1000 12449.8056
20.1100 12121.4112
20.1200 12474.9292
20.1300 12315.5022
20.1400 12342.0948
20.1500 12047.0240
20.1600 12838.0192
20.1700 12689.2472
20.1800 12229.9748
20.1900 12260.6388
20.2000 12417.2152
20.2100 12468.9014
20.2200 12220.2238
20.2300 12061.0848
20.2400 12112.4406
20.2500 12047.5456
20.2600 12466.0596
20.2700 12557.9720
20.2800 12079.4604
20.2900 12747.1028
20.3000 12675.4094
20.3100 12504.5426
20.3200 12329.2920
20.3300 11954.6370
20.3400 12151.9628
20.3500 11940.7316
20.3600 12373.6272
20.3700 12303.5270
20.3800 12347.5204
20.3900 12529.6460
20.4000 12433.1552
20.4100 12050.8838
20.4200 12434.3204
20.4300 12603.2454
20.4400 12417.1208
20.4500 12040.5754
20.4600 12873.3862
20.4700 11961.6480
20.4800 12502.6644
20.4900 12299.0398
20.5000 12066.0848
20.5100 12573.4880
20.5200 12044.7974
20.5300 12426.4478
20.5400 12207.6448
20.5500 11775.8138
20.5600 12152.5732
20.5700 12597.0988
20.5800 12671.2354
20.5900 11475.4900
20.6000 11809.5728
20.6100 11947.6726
20.6200 12227.1948
20.6300 12325.1376
20.6400 12050.9514
20.6500 12021.6276
20.6600 12377.9044
20.6700 11522.4488
20.6800 11719.9854
20.6900 12011.6276
20.7000 11900.7512
20.7100 11612.4984
20.7200 11835.6934
20.7300 11695.2888
20.7400 11942.7474
20.7500 12441.1018
20.7600 12066.7400
20.7700 12045.6884
20.7800 12042.4838
20.7900 12140.3060
20.8000 11738.6174
20.8100 12032.0516
20.8200 11710.4158
20.8300 11979.0536
20.8400 12517.5342
20.8500 12104.6858
20.8600 12007.8036
20.8700 11983.7720
20.8800 12167.7784
20.8900 12009.4482
20.9000 11468.7084
20.9100 11444.1040
20.9200 11675.0602
20.9300 11910.6478
20.9400 11681.5048
20.9500 11593.0704
20.9600 12125.4874
20.9700 12126.3192
20.9800 11683.1990
20.9900 11585.6788
21.0000 11496.4364
21.0100 11648.2120
21.0200 12114.6858
21.0300 11404.4596
21.0400 11792.1598
21.0500 11285.0472
21.0600 11583.7370
21.0700 11585.4036
21.0800 11574.2700
21.0900 11679.2740
21.1000 12096.6902
21.1100 11164.4970
21.1200 11401.9018
21.1300 12147.3568
21.1400 12123.5442
21.1500 12169.7982
21.1600 12031.5218
21.1700 11709.0984
21.1800 11966.2166
21.1900 11517.4374
21.2000 11583.9738
21.2100 11943.7842
21.2200 11481.6170
21.2300 11654.5150
21.2400 11355.1400
21.2500 11450.8106
21.2600 11558.7444
21.2700 11605.7422
21.2800 11437.9362
21.2900 11652.4088
21.3000 11833.4188
21.3100 11512.8124
21.3200 11174.7112
21.3300 11380.5998
21.3400 10877.6220
21.3500 11610.0676
21.3600 11458.0126
21.3700 11508.3448
21.3800 11325.4142
21.3900 11126.0636
21.4000 11327.0280
21.4100 11529.7216
21.4200 11226.9312
21.4300 11445.6420
21.4400 11694.4474
21.4500 11706.6228
21.4600 11650.6168
21.4700 11398.8404
21.4800 11460.5948
21.4900 11688.4708
21.5000 11330.0252
21.5100 11405.8814
21.5200 11442.4642
21.5300 11305.5826
21.5400 11121.6398
21.5500 11248.4334
21.5600 11059.2260
21.5700 11497.4324
21.5800 10816.6846
21.5900 11382.9786
21.6000 11046.2818
21.6100 10993.7704
21.6200 11555.5126
21.6300 11433.2462
21.6400 10855.6640
21.6500 10921.9986
21.6600 11642.8466
21.6700 11268.2812
21.6800 11824.5394
21.6900 11386.8774
21.7000 11444.6656
21.7100 11281.2532
21.7200 10861.8238
21.7300 10858.6466
21.7400 11604.7176
21.7500 11440.0798
21.7600 11159.0780
21.7700 11049.3856
21.7800 11365.1514
21.7900 11240.1872
21.8000 10988.6158
21.8100 11318.9950
21.8200 10701.4680
21.8300 10805.7690
21.8400 10921.4152
21.8500 10838.8720
21.8600 11406.4860
21.8700 10895.4322
21.8800 11154.3986
21.8900 10983.0436
21.9000 10986.4722
21.9100 11122.2688
21.9200 11290.2172
21.9300 10954.5312
21.9400 11153.6132
21.9500 10982.3282
21.9600 11211.6984
21.9700 11337.9842
21.9800 10822.7556
21.9900 10846.1068
22.0000 10409.0584
22.0100 11077.0206
22.0200 11526.7862
22.0300 10582.0004
22.0400 10834.0966
22.0500 11404.2212
22.0600 11030.6128
22.0700 10971.5690
22.0800 11002.5146
22.0900 10782.1810
22.1000 10772.4894
22.1100 11033.8314
22.1200 11381.1630
22.1300 10642.9802
22.1400 10603.0200
22.1500 10865.0684
22.1600 10898.5352
22.1700 11157.1874
22.1800 10446.3598
22.1900 10474.6044
22.2000 10976.5048
22.2100 11125.0562
22.2200 11496.7952
22.2300 10999.3498
22.2400 11080.9034
22.2500 11022.8614
22.2600 10861.7660
22.2700 11208.4586
22.2800 11381.7122
22.2900 11147.1704
22.3000 10982.9720
22.3100 11156.7432
22.3200 11226.9034
22.3300 11179.5948
22.3400 11252.6562
22.3500 11078.2682
22.3600 10831.8904
22.3700 11137.2176
22.3800 10986.7090
22.3900 11487.3510
22.4000 11414.4962
22.4100 11363.6272
22.4200 11209.3920
22.4300 11083.1788
22.4400 11215.0424
22.4500 11042.7238
22.4600 10632.8084
22.4700 11236.7154
22.4800 11187.9988
22.4900 11192.7042
22.5000 10861.2134
22.5100 10757.8166
22.5200 10637.8272
22.5300 10970.6226
22.5400 10822.7140
22.5500 11215.1912
22.5600 10813.8590
22.5700 10472.5846
22.5800 11095.7356
22.5900 10694.0414
22.6000 10451.6194
22.6100 10082.5276
22.6200 10487.2444
22.6300 10390.7902
22.6400 10643.5002
22.6500 10672.0850
22.6600 10246.4462
22.6700 10190.6828
22.6800 10222.4918
22.6900 10190.7544
22.7000 10591.5276
22.7100 10233.8500
22.7200 10560.0904
22.7300 10595.8708
22.7400 10712.1134
22.7500 10244.2872
22.7600 10505.1424
22.7700 10791.8196
22.7800 10468.9648
22.7900 10339.7892
22.8000 10459.5426
22.8100 10503.4530
22.8200 10757.7832
22.8300 10736.3428
22.8400 10138.6540
22.8500 10092.3274
22.8600 10312.0906
22.8700 10155.4052
22.8800 9795.5192
22.8900 10447.5878
22.9000 10820.0814
22.9100 10382.0614
22.9200 10227.1362
22.9300 9915.7064
22.9400 10246.7138
22.9500 10047.6652
22.9600 10602.5578
22.9700 10069.8804
22.9800 10377.8654
22.9900 10551.2622
23.0000 10336.3648
23.0100 10262.3372
23.0200 10329.5134
23.0300 10739.0486
23.0400 10248.8142
23.0500 10143.5108
23.0600 9958.2748
23.0700 10312.9606
23.0800 10230.9774
23.0900 10011.4306
23.1000 9783.5352
23.1100 9985.5240
23.1200 10341.7268
23.1300 10181.7570
23.1400 10148.3676
23.1500 10214.5012
23.1600 10056.0320
23.1700 9783.2666
23.1800 9931.4454
23.1900 9368.3154
23.2000 9945.5526
23.2100 10515.6022
23.2200 10558.2618
23.2300 10437.3348
23.2400 10026.6928
23.2500 9767.6342
23.2600 9690.0878
23.2700 9722.7498
23.2800 9679.7348
23.2900 9794.7810
23.3000 10207.8816
23.3100 10387.6790
23.3200 10263.1112
23.3300 10135.5502
23.3400 10279.7200
23.3500 9857.6034
23.3600 10285.7796
23.3700 10386.0124
23.3800 10029.9626
23.3900 10005.1578
23.4000 10064.4018
23.4100 10234.7966
23.4200 9988.0086
23.4300 9958.2218
23.4400 10299.3108
23.4500 9818.6280
23.4600 9688.2600
23.4700 9665.1970
23.4800 9933.2032
23.4900 9679.5988
23.5000 9636.5544
23.5100 9964.0120
23.5200 9666.6430
23.5300 10158.4196
23.5400 9865.4778
23.5500 9694.7184
23.5600 9872.0704
23.5700 9897.3722
23.5800 9456.1246
23.5900 9681.0766
23.6000 10133.0876
23.6100 9949.8364
23.6200 9527.4032
23.6300 9937.6920
23.6400 9334.8730
23.6500 10000.4890
23.6600 9887.9908
23.6700 9584.8568
23.6800 9834.2066
23.6900 9889.4458
23.7000 9440.8724
23.7100 9573.3414
23.7200 9676.5266
23.7300 9457.4496
23.7400 9137.1590
23.7500 9668.3276
23.7600 9868.7410
23.7700 9770.9602
23.7800 9634.6802
23.7900 9645.9016
23.8000 9740.9660
23.8100 10107.4748
23.8200 9811.0328
23.8300 9962.4048
23.8400 9881.1132
23.8500 9438.0892
23.8600 9886.4242
23.8700 9960.8504
23.8800 9558.1160
23.8900 9683.9966
23.9000 9752.7612
23.9100 9523.6150
23.9200 9610.0708
23.9300 9847.6180
23.9400 9580.8300
23.9500 9725.9960
23.9600 9792.2688
23.9700 9771.3004
23.9800 9680.1498
23.9900 9261.8352
24.0000 9202.1972
24.0100 9278.8362
24.0200 9804.4996
24.0300 9538.0322
24.0400 9682.5406
24.0500 9122.3868
24.0600 9356.1116
24.0700 9540.6828
24.0800 8909.2416
24.0900 9456.9156
24.1000 9248.8452
24.1100 9729.6126
24.1200 9502.6790
24.1300 9705.0318
24.1400 9934.9462
24.1500 9384.0494
24.1600 9232.5748
24.1700 9246.9986
24.1800 9631.7008
24.1900 9336.1158
24.2000 9676.3330
24.2100 9371.3428
24.2200 9542.6114
24.2300 9298.9470
24.2400 9379.4930
24.2500 9596.2590
24.2600 9613.3780
24.2700 9485.3116
24.2800 9481.2444
24.2900 9660.7364
24.3000 9779.8152
24.3100 9327.0020
24.3200 9535.1986
24.3300 9182.5798
24.3400 8852.1924
24.3500 9489.1682
24.3600 9487.8418
24.3700 9502.1598
24.3800 9410.4818
24.3900 9274.6680
24.4000 9247.8646
24.4100 8972.8548
24.4200 9112.2916
24.4300 9424.9244
24.4400 9598.0030
24.4500 9124.7184
24.4600 8968.4774
24.4700 9468.0730
24.4800 9538.8476
24.4900 9374.2268
24.5000 9097.3746
24.5100 9298.4236
24.5200 9313.8908
24.5300 9177.8198
24.5400 8979.4076
24.5500 9004.8706
24.5600 9178.3496
24.5700 8902.2444
24.5800 9383.8746
24.5900 9547.6026
24.6000 9273.6718
24.6100 9385.0154
24.6200 9270.7308
24.6300 9009.8494
24.6400 9304.1894
24.6500 9177.0394
24.6600 9483.2854
24.6700 9174.5670
24.6800 9260.2808
24.6900 8996.8644
24.7000 8770.4720
24.7100 8686.6324
24.7200 9420.0374
24.7300 8999.6810
24.7400 8962.1940
24.7500 9065.5834
24.7600 9129.6322
24.7700 9392.4130
24.7800 9203.5050
24.7900 9145.2164
24.8000 9618.8004
24.8100 9118.4742
24.8200 8959.2066
24.8300 9165.2034
24.8400 9003.0762
24.8500 9036.5406
24.8600 8736.4998
24.8700 8903.3374
24.8800 9180.1872
24.8900 9145.7154
24.9000 9016.3298
24.9100 8841.5870
24.9200 8884.0080
24.9300 8752.8532
24.9400 8852.5928
24.9500 8948.0624
24.9600 9492.5106
24.9700 8788.3740
24.9800 9563.2610
24.9900 9261.3396
25.0000 9045.5436
25.0100 9088.8818
25.0200 8815.7170
25.0300 8583.8062
25.0400 8973.3308
25.0500 9022.3478
25.0600 8648.4782
25.0700 9154.8250
25.0800 9254.6166
25.0900 8648.3944
25.1000 8847.7686
25.1100 8713.5206
25.1200 8924.6598
25.1300 8866.5178
25.1400 8744.0438
25.1500 8971.5568
25.1600 8798.2902
25.1700 9235.8586
25.1800 8938.3838
25.1900 8952.5220
25.2000 8685.0912
25.2100 8435.3874
25.2200 8396.7960
25.2300 8699.7216
25.2400 8779.8730
25.2500 8554.1764
25.2600 8703.4612
25.2700 8992.8622
25.2800 8834.5118
25.2900 8730.1586
25.3000 8706.0954
25.3100 9205.4760
25.3200 8863.0786
25.3300 8838.2772
25.3400 9015.7064
25.3500 8848.0640
25.3600 8966.1726
25.3700 8602.4316
25.3800 8846.2736
25.3900 9419.3482
25.4000 8824.8886
25.4100 8630.6470
25.4200 8450.7706
25.4300 8769.0626
25.4400 8683.4896
25.4500 9012.9232
25.4600 8772.5366
25.4700 9011.5836
25.4800 8505.9114
25.4900 8740.5038
25.5000 8392.2672
25.5100 8733.9112
25.5200 8640.5810
25.5300 8828.8314
25.5400 8907.1208
25.5500 8326.4616
25.5600 8467.8630
25.5700 8720.7918
25.5800 8632.4292
25.5900 8890.0888
25.6000 8518.0924
25.6100 8198.1046
25.6200 8693.5328
25.6300 8808.1290
25.6400 8845.8724
25.6500 9161.9278
25.6600 9016.3582
25.6700 8392.7938
25.6800 8775.5696
25.6900 8695.8700
25.7000 8677.1158
25.7100 8945.2636
25.7200 8432.6742
25.7300 8623.1420
25.7400 8898.1640
25.7500 8508.5206
25.7600 8348.1006
25.7700 8709.8690
25.7800 8532.8296
25.7900 8703.5962
25.8000 8418.0266
25.8100 8529.1700
25.8200 8568.6482
25.8300 8174.7680
25.8400 8601.9986
25.8500 8756.3510
25.8600 8462.9760
25.8700 8541.6944
25.8800 8310.1066
25.8900 8587.3918
25.9000 8793.5824
25.9100 8558.1666
25.9200 8516.4250
25.9300 8446.6122
25.9400 8192.6042
25.9500 8643.6988
25.9600 8560.1376
25.9700 8296.3176
25.9800 8874.4384
25.9900 8358.4970
26.0000 8227.5520
26.0100 8733.2618
26.0200 8427.0150
26.0300 7960.1270
26.0400 8460.1912
26.0500 8612.5424
26.0600 8448.2316
26.0700 8251.9238
26.0800 8552.0590
26.0900 8178.1380
26.1000 8140.7406
26.1100 8806.4812
26.1200 8516.6202
26.1300 8724.3058
26.1400 8682.6840
26.1500 8318.0900
26.1600 8157.0736
26.1700 8801.1150
26.1800 8349.5890
26.1900 8441.9628
26.2000 8490.5656
26.2100 8599.3888
26.2200 8502.6604
26.2300 8570.3670
26.2400 8333.5668
26.2500 8418.1104
26.2600 8308.8110
26.2700 8520.8342
26.2800 8591.5096
26.2900 8836.0596
26.3000 8480.4322
26.3100 8269.4254
26.3200 8211.9198
26.3300 8765.7552
26.3400 8400.9212
26.3500 8242.8108
26.3600 8666.1694
26.3700 8570.2116
26.3800 8544.1374
26.3900 8467.2600
26.4000 8529.7680
26.4100 8661.9092
26.4200 8484.9308
26.4300 8281.4632
26.4400 8414.1602
26.4500 8610.8724
26.4600 8318.9860
26.4700 8199.7908
26.4800 8418.5938
26.4900 8749.1520
26.5000 8368.4724
26.5100 8730.5486
26.5200 8092.8092
26.5300 8160.6112
26.5400 8169.2976
26.5500 8373.4220
26.5600 8687.6676
26.5700 8172.0100
26.5800 7929.3806
26.5900 7922.3152
26.6000 8000.6446
26.6100 8182.3730
26.6200 8392.8076
26.6300 8310.7260
26.6400 8025.3532
26.6500 7908.2234
26.6600 7907.8800
26.6700 7979.9040
26.6800 7958.3658
26.6900 8177.1826
26.7000 8156.9474
26.7100 8664.4312
26.7200 8250.0114
26.7300 8219.4848
26.7400 8158.2780
26.7500 8153.5416
26.7600 7853.6686
26.7700 8175.7096
26.7800 8200.8902
26.7900 8170.7382
26.8000 7866.3046
26.8100 8178.9534
26.8200 8047.6058
26.8300 8293.5124
26.8400 7763.6670
26.8500 8159.7672
26.8600 7918.0168
26.8700 8038.0656
26.8800 7951.9018
26.8900 8096.0238
26.9000 7768.2382
26.9100 7893.3838
26.9200 7741.9506
26.9300 7825.5094
26.9400 7963.2950
26.9500 7646.7994
26.9600 8045.6526
26.9700 8138.6328
26.9800 7844.7070
26.9900 8037.7758
27.0000 7941.3094
27.0100 7726.7652
27.0200 8169.2920
27.0300 7596.4664
27.0400 7858.9812
27.0500 8182.3372
27.0600 8016.8694
27.0700 8103.3488
27.0800 8128.1396
27.0900 7843.9746
27.1000 7757.3730
27.1100 7596.4380
27.1200 8028.6930
27.1300 8323.8054
27.1400 8247.9354
27.1500 7877.8052
27.1600 7476.7920
27.1700 7844.9764
27.1800 8013.9892
27.1900 7729.9724
27.2000 8107.2274
27.2100 8163.9332
27.2200 8200.7284
27.2300 7959.8112
27.2400 7705.2254
27.2500 7897.6254
27.2600 7631.7814
27.2700 7676.3232
27.2800 7765.3092
27.2900 7847.1834
27.3000 7743.9494
27.3100 8007.6814
27.3200 8036.4868
27.3300 8154.3490
27.3400 7776.7090
27.3500 7957.2460
27.3600 7919.9804
27.3700 7792.7254
27.3800 7905.3108
27.3900 7511.3990
27.4000 7945.0992
27.4100 7790.8928
27.4200 7288.7084
27.4300 7872.4830
27.4400 7693.3846
27.4500 7556.1572
27.4600 7524.2424
27.4700 8208.6540
27.4800 7900.2556
27.4900 7884.1780
27.5000 7880.6552
27.5100 7811.7806
27.5200 7711.4746
27.5300 7917.2470
27.5400 7813.3936
27.5500 8032.1916
27.5600 8005.6218
27.5700 7975.3142
27.5800 7459.3742
27.5900 7468.0598
27.6000 8011.3632
27.6100 7739.1114
27.6200 7996.4632
27.6300 7780.3336
27.6400 8019.2952
27.6500 8057.2208
27.6600 7788.7582
27.6700 7681.1824
27.6800 7610.1774
27.6900 7662.4780
27.7000 7771.3264
27.7100 7642.8988
27.7200 7974.4898
27.7300 7796.8506
27.7400 7924.8072
27.7500 8008.7850
27.7600 7531.7236
27.7700 8149.1390
27.7800 7923.7190
27.7900 8142.9314
27.8000 7942.2860
27.8100 7684.4914
27.8200 7672.9004
27.8300 7592.0190
27.8400 7503.5888
27.8500 7649.0616
27.8600 7690.3710
27.8700 7683.3756
27.8800 8027.2966
27.8900 7607.6962
27.9000 7753.4130
27.9100 7779.7136
27.9200 7199.7298
27.9300 7540.6348
27.9400 7835.3336
27.9500 7687.6578
27.9600 7745.8512
27.9700 7722.1126
27.9800 7749.4914
27.9900 7760.3182
28.0000 7941.0034
28.0100 7722.0336
28.0200 8044.4052
28.0300 8129.7820
28.0400 7744.2530
28.0500 7541.6602
28.0600 7754.6786
28.0700 7759.9268
28.0800 7499.4034
28.0900 7643.9648
28.1000 7729.5540
28.1100 7780.0870
28.1200 7561.7626
28.1300 7839.1544
28.1400 7797.6814
28.1500 7417.5546
28.1600 7785.1912
28.1700 7866.8864
28.1800 8022.4812
28.1900 7580.4850
28.2000 7823.2096
28.2100 7858.3594
28.2200 7419.6786
28.2300 7576.4054
28.2400 7257.2836
28.2500 7571.7382
28.2600 7546.1150
28.2700 7036.5698
28.2800 7705.5818
28.2900 7881.4820
28.3000 7641.2614
28.3100 7651.0328
28.3200 7733.3676
28.3300 7952.4194
28.3400 7381.0808
28.3500 7429.3164
28.3600 7392.4202
28.3700 7591.5690
28.3800 7764.6248
28.3900 7718.4472
28.4000 7387.6376
28.4100 7938.9112
28.4200 7621.3500
28.4300 7888.7028
28.4400 7590.3662
28.4500 7756.3868
28.4600 7636.0196
28.4700 7618.9258
28.4800 7464.1162
28.4900 7847.6188
28.5000 8002.2672
28.5100 7484.8202
28.5200 7771.4372
28.5300 7657.1444
28.5400 7768.3944
28.5500 7741.0302
28.5600 7529.9902
28.5700 7316.4672
28.5800 8087.7540
28.5900 7565.0668
28.6000 7607.9166
28.6100 7707.2144
28.6200 7853.6726
28.6300 7600.5022
28.6400 7895.3598
28.6500 7766.3134
28.6600 7584.6370
28.6700 7795.9742
28.6800 7688.7890
28.6900 7706.8116
28.7000 7891.0416
28.7100 7593.5474
28.7200 7577.8092
28.7300 7729.8046
28.7400 7686.8010
28.7500 7513.5678
28.7600 7914.5296
28.7700 7904.9812
28.7800 7459.4068
28.7900 7781.3704
28.8000 7632.0654
28.8100 7786.0620
28.8200 7823.5978
28.8300 7826.3012
28.8400 7541.2784
28.8500 7573.1656
28.8600 7914.2880
28.8700 7865.9848
28.8800 7737.6464
28.8900 7449.2578
28.9000 7761.9426
28.9100 7543.2202
28.9200 7962.2128
28.9300 7430.4280
28.9400 7676.1442
28.9500 7495.8358
28.9600 7822.6570
28.9700 7254.4402
28.9800 7061.4794
28.9900 7469.1700
29.0000 7410.4452
29.0100 7435.8536
29.0200 7721.2102
29.0300 7079.0104
29.0400 7760.9872
29.0500 7652.6000
29.0600 7581.0262
29.0700 7401.8766
29.0800 7264.7574
29.0900 7655.1676
29.1000 7306.6324
29.1100 7647.5260
29.1200 7408.3920
29.1300 7412.5268
29.1400 7425.5526
29.1500 7495.6542
29.1600 7629.4532
29.1700 7525.2986
29.1800 7616.9060
29.1900 7339.5598
29.2000 6971.8246
29.2100 7310.4508
29.2200 7603.6938
29.2300 7314.9666
29.2400 7437.1192
29.2500 7468.6694
29.2600 7726.8978
29.2700 7397.8370
29.2800 6931.7432
29.2900 7114.0276
29.3000 7007.8996
29.3100 7457.6692
29.3200 7376.0904
29.3300 7378.5140
29.3400 7351.5178
29.3500 7048.9770
29.3600 7576.2060
29.3700 7304.1878
29.3800 7459.3376
29.3900 7087.4332
29.4000 7297.8020
29.4100 7283.5042
29.4200 6999.6012
29.4300 7104.2334
29.4400 7255.9400
29.4500 7316.0848
29.4600 7470.0318
29.4700 7324.7200
29.4800 7102.2892
29.4900 6974.1186
29.5000 7393.6832
29.5100 7498.3472
29.5200 7266.7050
29.5300 7267.3414
29.5400 7458.1062
29.5500 7437.8996
29.5600 7215.6918
29.5700 7680.2800
29.5800 7346.2346
29.5900 6962.1086
29.6000 7257.6124
29.6100 7284.0064
29.6200 7388.8810
29.6300 7146.6846
29.6400 7439.1146
29.6500 7299.9130
29.6600 7401.9474
29.6700 7776.5022
29.6800 7115.6022
29.6900 6976.9694
29.7000 7211.4778
29.7100 7252.2338
29.7200 7251.8954
29.7300 7503.9054
29.7400 7374.1488
29.7500 7264.3758
29.7600 7273.6840
29.7700 7394.9454
29.7800 7228.6938
29.7900 7383.0916
29.8000 7322.4934
29.8100 7220.9888
29.8200 7177.3380
29.8300 6836.9100
29.8400 7221.1190
29.8500 7265.1246
29.8600 7003.3276
29.8700 6726.0078
29.8800 7366.9068
29.8900 7012.4186
29.9000 7314.0756
29.9100 7361.2654
29.9200 7253.8012
29.9300 7358.7548
29.9400 7477.6628
29.9500 7412.6676
29.9600 7191.1848
29.9700 6904.1366
29.9800 7087.5928
29.9900 7269.8780
30.0000 7389.5402
30.0100 7298.0110
30.0200 6942.2876
30.0300 7226.0678
30.0400 7131.2980
30.0500 7486.8458
30.0600 7073.9022
30.0700 7196.1604
30.0800 7420.8626
30.0900 7395.0024
30.1000 7380.2530
30.1100 7058.3220
30.1200 7023.0738
30.1300 7013.3106
30.1400 7055.3052
30.1500 7110.4500
30.1600 7022.0354
30.1700 7091.4860
30.1800 7530.9408
30.1900 7195.3686
30.2000 7156.8466
30.2100 6809.5446
30.2200 6986.1418
30.2300 6801.0180
30.2400 6991.9718
30.2500 7252.5764
30.2600 7036.7374
30.2700 7059.0804
30.2800 6899.0600
30.2900 7156.8864
30.3000 7178.1038
30.3100 6873.3626
30.3200 7169.6972
30.3300 7393.9070
30.3400 7554.1308
30.3500 7053.0648
30.3600 6953.5172
30.3700 7340.9270
30.3800 7017.4968
30.3900 6967.9012
30.4000 7378.8126
30.4100 6967.6718
30.4200 6729.9032
30.4300 7256.5064
30.4400 6893.1136
30.4500 7186.8458
30.4600 7547.6782
30.4700 7338.7198
30.4800 7428.5546
30.4900 6713.1652
30.5000 7085.6990
30.5100 7431.8156
30.5200 7146.6772
30.5300 7220.0528
30.5400 7335.2222
30.5500 6939.3098
30.5600 7127.3706
30.5700 7476.2744
30.5800 7362.5196
30.5900 7199.6664
30.6000 6932.3022
30.6100 7192.8402
30.6200 6955.2376
30.6300 7131.4616
30.6400 6990.0538
30.6500 6971.1198
30.6600 7359.6744
30.6700 7096.1858
30.6800 7059.3458
30.6900 7316.1832
30.7000 7218.1430
30.7100 7408.8484
30.7200 7163.9226
30.7300 7139.2976
30.7400 7066.6308
30.7500 7528.7728
30.7600 7232.8344
30.7700 7261.8872
30.7800 6980.6552
30.7900 7457.1810
30.8000 7321.9768
30.8100 7103.1836
30.8200 7546.8644
30.8300 7121.8644
30.8400 7203.5018
30.8500 7314.2514
30.8600 7429.8422
30.8700 7351.3248
30.8800 7206.9148
30.8900 7209.3302
30.9000 7332.4934
30.9100 7499.7094
30.9200 7239.1846
30.9300 7204.7706
30.9400 7545.5566
30.9500 6915.9244
30.9600 7147.8028
30.9700 7620.7976
30.9800 7708.4392
30.9900 7462.3308
31.0000 7439.6998
31.0100 7601.8718
31.0200 7513.4262
31.0300 7417.8768
31.0400 7294.9008
31.0500 7507.8728
31.0600 7829.6858
31.0700 7573.7028
31.0800 7157.3674
31.0900 7365.3598
31.1000 7371.8156
31.1100 7732.4984
31.1200 7724.3726
31.1300 7675.4794
31.1400 7399.8282
31.1500 7693.1982
31.1600 7939.8894
31.1700 7915.8170
31.1800 7864.3416
31.1900 8205.9660
31.2000 8033.1966
31.2100 8109.4230
31.2200 7980.3874
31.2300 8012.4878
31.2400 8166.5870
31.2500 8011.8026
31.2600 8240.6070
31.2700 7940.3312
31.2800 7992.4716
31.2900 8090.7348
31.3000 8344.4474
31.3100 8492.8736
31.3200 8095.6868
31.3300 7915.4232
31.3400 8105.6202
31.3500 8075.6674
31.3600 8231.3818
31.3700 8175.9644
31.3800 8084.0862
31.3900 7948.5124
31.4000 8275.1522
31.4100 8013.7190
31.4200 7740.0732
31.4300 8128.5066
31.4400 8043.1552
31.4500 7777.4480
31.4600 8159.1390
31.4700 7966.2654
31.4800 8189.7298
31.4900 8413.0322
31.5000 8070.6518
31.5100 8447.3820
31.5200 8499.1976
31.5300 9015.6340
31.5400 8983.7434
31.5500 9356.8278
31.5600 9068.2862
31.5700 9865.0528
31.5800 9877.1778
31.5900 9738.8704
31.6000 9980.4370
31.6100 9728.0216
31.6200 10777.9346
31.6300 10660.7324
31.6400 11516.1556
31.6500 11857.5318
31.6600 12166.7294
31.6700 12848.6500
31.6800 13348.1210
31.6900 14144.1016
31.7000 14711.7334
31.7100 15413.8574
31.7200 15475.6836
31.7300 16638.0436
31.7400 17683.3610
31.7500 17367.3974
31.7600 18721.1490
31.7700 19501.4404
31.7800 20804.8894
31.7900 21683.2846
31.8000 22396.5608
31.8100 23829.1878
31.8200 23677.7556
31.8300 25315.3694
31.8400 25976.7464
31.8500 26792.5098
31.8600 28070.0456
31.8700 28658.4896
31.8800 29508.8704
31.8900 31221.4908
31.9000 31692.6400
31.9100 32085.1726
31.9200 33611.6928
31.9300 33374.7526
31.9400 33970.8952
31.9500 34508.4016
31.9600 33985.3744
31.9700 35014.5638
31.9800 34152.2656
31.9900 34538.6198
32.0000 33895.1140
32.0100 33421.3054
32.0200 32517.0346
32.0300 32155.9636
32.0400 31864.8502
32.0500 30772.5586
32.0600 29215.8268
32.0700 28925.4752
32.0800 27065.7374
32.0900 26014.5004
32.1000 24136.9580
32.1100 22508.8378
32.1200 21990.3386
32.1300 19761.4290
32.1400 18932.8842
32.1500 17579.2334
32.1600 17206.0580
32.1700 15847.9866
32.1800 15064.6988
32.1900 13620.3938
32.2000 12746.8554
32.2100 12150.8748
32.2200 10871.4916
32.2300 11479.4206
32.2400 10434.1658
32.2500 9987.4804
32.2600 9724.8038
32.2700 9200.2294
32.2800 8781.4104
32.2900 8428.4326
32.3000 8616.8132
32.3100 8196.5512
32.3200 7956.6292
32.3300 8387.7368
32.3400 7661.0026
32.3500 7813.0502
32.3600 7700.0212
32.3700 7480.9384
32.3800 7822.6042
32.3900 7599.9682
32.4000 7398.6206
32.4100 7432.6326
32.4200 7041.8498
32.4300 7472.0256
32.4400 7155.2392
32.4500 7286.2264
32.4600 7035.7268
32.4700 6824.3786
32.4800 7137.9768
32.4900 7471.5772
32.5000 6986.9588
32.5100 6824.6142
32.5200 7311.4022
32.5300 6820.1338
32.5400 7235.7324
32.5500 7072.0354
32.5600 7140.7308
32.5700 7055.5574
32.5800 7074.3620
32.5900 7175.3964
32.6000 7394.1814
32.6100 7525.9374
32.6200 7198.8388
32.6300 6541.1540
32.6400 6901.2768
32.6500 7191.7432
32.6600 6826.8010
32.6700 7000.1342
32.6800 7380.5924
32.6900 7261.6650
32.7000 7196.6032
32.7100 7016.9466
32.7200 6847.0564
32.7300 6777.3620
32.7400 7191.9596
32.7500 6589.5426
32.7600 6654.2378
32.7700 6931.0896
32.7800 6493.0456
32.7900 7120.3702
32.8000 7009.6216
32.8100 7060.0806
32.8200 7055.7870
32.8300 6748.9794
32.8400 6536.6570
32.8500 6621.8282
32.8600 7303.5800
32.8700 7158.2454
32.8800 6748.4350
32.8900 7285.1018
32.9000 6991.1962
32.9100 6944.6070
32.9200 6431.6060
32.9300 6905.7528
32.9400 6852.3536
32.9500 7134.7054
32.9600 7015.2002
32.9700 6717.9550
32.9800 6835.7796
32.9900 7173.9144
33.0000 6554.4498
33.0100 6652.5142
33.0200 6826.3750
33.0300 6943.5824
33.0400 6960.7918
33.0500 7123.4326
33.0600 6858.7890
33.0700 7161.1230
33.0800 6787.3828
33.0900 6506.3986
33.1000 6833.4904
33.1100 6759.6782
33.1200 6957.7800
33.1300 6891.0556
33.1400 6888.8094
33.1500 6890.2164
33.1600 6643.2622
33.1700 6678.5556
33.1800 6664.9996
33.1900 6669.2664
33.2000 6875.1188
33.2100 6983.2878
33.2200 6806.8050
33.2300 7117.5960
33.2400 6491.5190
33.2500 6785.5594
33.2600 6446.5710
33.2700 6553.8264
33.2800 7018.4944
33.2900 6826.8652
33.3000 7282.0842
33.3100 6866.0888
33.3200 6513.1458
33.3300 6547.4272
33.3400 6986.4900
33.3500 6710.7272
33.3600 6644.8292
33.3700 6750.6404
33.3800 6429.7404
33.3900 6871.3460
33.4000 6642.3646
33.4100 6748.1250
33.4200 6545.2836
33.4300 6810.3170
33.4400 6975.1822
33.4500 6757.0878
33.4600 6630.1832
33.4700 6464.6998
33.4800 6533.6258
33.4900 6509.1976
33.5000 6824.0870
33.5100 6806.9600
33.5200 6459.8658
33.5300 6816.7366
33.5400 6579.5890
33.5500 6771.5446
33.5600 6367.1892
33.5700 6707.9358
33.5800 6581.5638
33.5900 6960.2816
33.6000 6660.4448
33.6100 7024.3694
33.6200 7136.8636
33.6300 6801.3378
33.6400 6738.1604
33.6500 7004.4328
33.6600 6870.2246
33.6700 6983.4228
33.6800 6613.7768
33.6900 6975.6250
33.7000 6538.8270
33.7100 7022.2616
33.7200 6575.3504
33.7300 6766.7126
33.7400 6489.7314
33.7500 6617.2600
33.7600 6593.1690
33.7700 6397.8686
33.7800 7051.4168
33.7900 6785.4712
33.8000 6670.3964
33.8100 6599.3172
33.8200 6909.1480
33.8300 6863.5278
33.8400 6410.6384
33.8500 6723.9546
33.8600 6492.8922
33.8700 7225.1896
33.8800 6490.7572
33.8900 6419.8104
33.9000 6456.1528
33.9100 6624.5442
33.9200 6607.6506
33.9300 6615.8292
33.9400 6324.9698
33.9500 6780.1274
33.9600 7110.7072
33.9700 6876.4218
33.9800 6995.1270
33.9900 6939.4052
34.0000 6803.0014
34.0100 6997.6986
34.0200 6827.1468
34.0300 6655.9872
34.0400 6854.3806
34.0500 6558.6140
34.0600 6513.4814
34.0700 6605.8866
34.0800 6847.0606
34.0900 6332.8194
34.1000 6693.8500
34.1100 6584.1000
34.1200 6435.9480
34.1300 6564.1792
34.1400 6627.9064
34.1500 6569.8434
34.1600 6552.0008
34.1700 6642.6464
34.1800 6622.0158
34.1900 6277.6790
34.2000 6260.4024
34.2100 6433.2646
34.2200 6525.8122
34.2300 6396.5296
34.2400 6681.9166
34.2500 6587.4304
34.2600 6567.7962
34.2700 6829.7786
34.2800 6687.7620
34.2900 6407.2070
34.3000 6743.3056
34.3100 6453.4562
34.3200 6677.1574
34.3300 6830.0960
34.3400 6411.8562
34.3500 6309.1928
34.3600 6622.3434
34.3700 6476.0664
34.3800 6705.5806
34.3900 6702.1180
34.4000 6601.3286
34.4100 6895.2652
34.4200 6739.2758
34.4300 6625.5416
34.4400 6749.5532
34.4500 6743.6356
34.4600 6561.1862
34.4700 6768.4982
34.4800 6625.0850
34.4900 7030.8406
34.5000 6730.3808
34.5100 6436.2916
34.5200 6805.9404
34.5300 6667.9716
34.5400 6353.6060
34.5500 6462.5882
34.5600 6618.2686
34.5700 6154.1886
34.5800 6131.0404
34.5900 6805.8464
34.6000 6580.7800
34.6100 6520.1160
34.6200 6483.7504
34.6300 6247.2376
34.6400 6616.3290
34.6500 7022.8792
34.6600 6617.5134
34.6700 6478.7842
34.6800 6370.9758
34.6900 6532.5162
34.7000 6366.5410
34.7100 6262.7172
34.7200 6664.3458
34.7300 6374.8046
34.7400 6508.8366
34.7500 6514.0332
34.7600 7046.5332
34.7700 6471.4998
34.7800 6793.1612
34.7900 6387.6266
34.8000 6706.5906
34.8100 6736.7460
34.8200 6556.9922
34.8300 6337.9794
34.8400 6481.9612
34.8500 6865.9978
34.8600 6624.6228
34.8700 6219.4160
34.8800 6740.0244
34.8900 6701.5088
34.9000 6424.8592
34.9100 6363.2154
34.9200 6591.7464
34.9300 6594.4756
34.9400 6763.5664
34.9500 6308.1176
34.9600 6220.6884
34.9700 6382.0464
34.9800 6466.4152
34.9900 6891.0196
35.0000 6458.0566
35.0100 6199.3298
35.0200 6443.5596
35.0300 6641.7232
35.0400 6568.0306
35.0500 6532.2082
35.0600 6598.4956
35.0700 6233.2108
35.0800 6238.1848
35.0900 6386.5548
35.1000 6854.7900
35.1100 6648.5344
35.1200 6457.6962
35.1300 6583.2010
35.1400 6208.7556
35.1500 6178.6612
35.1600 6411.0494
35.1700 6238.0136
35.1800 5870.0924
35.1900 6327.6200
35.2000 6566.7912
35.2100 6649.4242
35.2200 6528.2556
35.2300 6473.4384
35.2400 6660.8972
35.2500 6445.1204
35.2600 6372.2270
35.2700 6097.3050
35.2800 6520.5848
35.2900 6560.0280
35.3000 6622.3352
35.3100 6679.6444
35.3200 6666.3302
35.3300 6331.7098
35.3400 6420.0874
35.3500 6426.9210
35.3600 6419.9580
35.3700 6380.0936
35.3800 6078.1506
35.3900 6558.7586
35.4000 6527.7738
35.4100 6691.1264
35.4200 6650.5864
35.4300 6951.3842
35.4400 6749.1744
35.4500 6576.9658
35.4600 6489.6948
35.4700 6604.3148
35.4800 6468.2024
35.4900 6426.7668
35.5000 6175.1030
35.5100 6549.5940
35.5200 6337.3198
35.5300 6582.6526
35.5400 6686.2610
35.5500 6700.9326
35.5600 6142.0646
35.5700 6355.7702
35.5800 6631.9764
35.5900 6689.1248
35.6000 6620.4024
35.6100 6694.9902
35.6200 6839.4418
35.6300 6533.9290
35.6400 6473.6536
35.6500 6567.3042
35.6600 6573.1034
35.6700 6353.7728
35.6800 6314.2110
35.6900 6294.8982
35.7000 6605.8920
35.7100 6779.0262
35.7200 6358.3228
35.7300 6296.9144
35.7400 6598.8754
35.7500 6456.2776
35.7600 6309.9272
35.7700 6220.2628
35.7800 6697.7022
35.7900 6569.1328
35.8000 6435.4558
35.8100 6415.0130
35.8200 6362.3064
35.8300 6314.0148
35.8400 6438.1880
35.8500 6423.9290
35.8600 6625.7014
35.8700 6294.4506
35.8800 5985.6046
35.8900 6423.1982
35.9000 6620.3308
35.9100 6863.2340
35.9200 6199.4852
35.9300 6398.1506
35.9400 6651.1886
35.9500 6533.9208
35.9600 6641.7342
35.9700 6422.7324
35.9800 6175.5400
35.9900 6403.8916
36.0000 6199.6086
36.0100 6580.2030
36.0200 6152.6888
36.0300 6915.6698
36.0400 6708.2482
36.0500 6724.3694
36.0600 6724.5178
36.0700 6738.2882
36.0800 6358.4826
36.0900 6612.4820
36.1000 6562.4020
36.1100 6386.6560
36.1200 6467.3882
36.1300 6500.6730
36.1400 6454.5056
36.1500 6822.6746
36.1600 6679.7262
36.1700 6153.3890
36.1800 6702.6664
36.1900 5840.0008
36.2000 6229.5202
36.2100 6485.9966
36.2200 6162.9786
36.2300 6327.1504
36.2400 6382.7812
36.2500 6379.5858
36.2600 6643.1580
36.2700 6629.9276
36.2800 6377.6770
36.2900 6550.9860
36.3000 6629.8470
36.3100 6821.6166
36.3200 6434.3554
36.3300 6547.6236
36.3400 6579.8148
36.3500 6474.4372
36.3600 6481.5238
36.3700 6287.2810
36.3800 6539.9064
36.3900 6423.3064
36.4000 6440.3728
36.4100 6515.1074
36.4200 6524.2692
36.4300 6476.9160
36.4400 6179.6854
36.4500 6465.6580
36.4600 6505.3576
36.4700 6558.0102
36.4800 6406.7562
36.4900 6893.5450
36.5000 6455.3520
36.5100 6375.8902
36.5200 6424.3840
36.5300 6214.5214
36.5400 6517.5298
36.5500 6499.0862
36.5600 6327.2790
36.5700 6387.5964
36.5800 6543.1706
36.5900 6206.2712
36.6000 6380.1826
36.6100 6697.0622
36.6200 6520.6836
36.6300 6431.8612
36.6400 6747.6730
36.6500 6651.1158
36.6600 6411.4816
36.6700 6557.3006
36.6800 6694.9812
36.6900 6628.9758
36.7000 6732.6738
36.7100 6781.1258
36.7200 6434.2244
36.7300 6311.6610
36.7400 6457.6464
36.7500 6484.7884
36.7600 6569.5568
36.7700 6354.1854
36.7800 6603.5750
36.7900 6709.6070
36.8000 6392.0914
36.8100 6595.6022
36.8200 6590.9248
36.8300 6772.2490
36.8400 6769.1918
36.8500 6507.6172
36.8600 6671.3510
36.8700 6541.7338
36.8800 6601.0128
36.8900 6555.3056
36.9000 6190.1802
36.9100 6239.6138
36.9200 6316.3180
36.9300 6253.5368
36.9400 6297.8516
36.9500 6379.1308
36.9600 6424.8068
36.9700 6354.5914
36.9800 6504.4722
36.9900 6423.7178
37.0000 6411.7432
37.0100 6537.0328
37.0200 6270.2714
37.0300 6614.8690
37.0400 6419.9222
37.0500 6513.1950
37.0600 6788.2178
37.0700 6498.1678
37.0800 6461.8848
37.0900 6309.4902
37.1000 6952.9500
37.1100 6612.3576
37.1200 6493.9294
37.1300 6391.9356
37.1400 6343.0270
37.1500 6662.2672
37.1600 6611.1348
37.1700 6266.1178
37.1800 6449.4160
37.1900 6370.9338
37.2000 6113.0102
37.2100 6426.0746
37.2200 6125.4858
37.2300 6094.1902
37.2400 6807.7698
37.2500 6680.8374
37.2600 6494.0592
37.2700 6459.0576
37.2800 6104.9458
37.2900 6379.7196
37.3000 6572.8492
37.3100 6421.2512
37.3200 6171.1878
37.3300 6379.2546
37.3400 6192.8284
37.3500 6333.3590
37.3600 6241.1532
37.3700 6327.1314
37.3800 6479.1228
37.3900 6574.0276
37.4000 6465.8150
37.4100 6562.4142
37.4200 6683.0278
37.4300 6171.6952
37.4400 6500.7304
37.4500 6447.5582
37.4600 6507.6774
37.4700 6467.6176
37.4800 6474.1068
37.4900 6269.6976
37.5000 6445.2644
37.5100 6248.6678
37.5200 6434.9630
37.5300 6533.4038
37.5400 6228.4298
37.5500 6418.7784
37.5600 6254.5650
37.5700 6466.8026
37.5800 6573.9498
37.5900 6321.2650
37.6000 6382.0138
37.6100 6421.8774
37.6200 6470.2144
37.6300 6143.3638
37.6400 6455.2072
37.6500 6109.8784
37.6600 6421.7400
37.6700 6383.5010
37.6800 6272.7180
37.6900 6704.8930
37.7000 6355.5306
37.7100 6410.8126
37.7200 6158.6642
37.7300 6521.7944
37.7400 6471.0816
37.7500 6560.7458
37.7600 6388.5766
37.7700 6368.4248
37.7800 6536.5144
37.7900 6491.5300
37.8000 6400.2624
37.8100 6242.9932
37.8200 6727.5508
37.8300 6341.2496
37.8400 6918.9022
37.8500 6384.9528
37.8600 6690.6494
37.8700 6596.2008
37.8800 6627.3430
37.8900 6416.4112
37.9000 6505.3564
37.9100 6366.9596
37.9200 6837.5188
37.9300 6495.6872
37.9400 6428.4986
37.9500 5855.0154
37.9600 6479.1220
37.9700 6273.9580
37.9800 6660.1790
37.9900 6625.8822
38.0000 6424.6740
38.0100 6519.6850
38.0200 6488.4488
38.0300 6249.2862
38.0400 6508.4148
38.0500 6533.9360
38.0600 6585.2552
38.0700 6311.7428
38.0800 6665.3214
38.0900 6401.6480
38.1000 6777.5732
38.1100 6013.1490
38.1200 6474.5154
38.1300 6667.0874
38.1400 6578.1714
38.1500 6771.1084
38.1600 6633.1754
38.1700 6576.6890
38.1800 6342.6664
38.1900 6185.1798
38.2000 6615.8814
38.2100 6390.8768
38.2200 6402.5174
38.2300 6489.9768
38.2400 6030.8220
38.2500 6407.6998
38.2600 6346.3400
38.2700 6579.2862
38.2800 6460.7958
38.2900 6446.1060
38.3000 6436.7924
38.3100 6598.4184
38.3200 6285.5644
38.3300 6296.4010
38.3400 6357.2786
38.3500 6562.8238
38.3600 6712.0446
38.3700 6837.1508
38.3800 6513.1584
38.3900 6413.8982
38.4000 6579.7144
38.4100 6909.6362
38.4200 6709.6634
38.4300 6186.9312
38.4400 6391.8920
38.4500 6487.9972
38.4600 6323.6792
38.4700 6245.6092
38.4800 6842.9086
38.4900 6343.2682
38.5000 6456.1604
38.5100 6553.4054
38.5200 6564.4288
38.5300 6730.4428
38.5400 6350.0322
38.5500 6557.6790
38.5600 6423.7838
38.5700 6428.3794
38.5800 6495.6396
38.5900 6726.3606
38.6000 6239.0910
38.6100 6451.5182
38.6200 6410.3056
38.6300 6583.7346
38.6400 6248.1312
38.6500 6800.4098
38.6600 6299.4170
38.6700 7036.9638
38.6800 6642.4556
38.6900 6549.9060
38.7000 6450.8040
38.7100 6797.9394
38.7200 6717.9590
38.7300 6527.3658
38.7400 6881.8694
38.7500 6476.2150
38.7600 6347.1078
38.7700 6606.2084
38.7800 6420.5494
38.7900 6994.4156
38.8000 6808.3574
38.8100 6951.1092
38.8200 6625.9940
38.8300 6495.4300
38.8400 6453.3924
38.8500 6546.9982
38.8600 6378.0388
38.8700 6537.3084
38.8800 6418.4416
38.8900 6773.3008
38.9000 6766.2150
38.9100 6595.9262
38.9200 6486.3228
38.9300 7146.4006
38.9400 7086.6358
38.9500 6868.4612
38.9600 6687.6936
38.9700 6773.6596
38.9800 6851.4616
38.9900 6610.7674
39.0000 6963.5180
39.0100 6890.5468
39.0200 6775.9038
39.0300 7106.5966
39.0400 6819.3566
39.0500 6843.5766
39.0600 6842.8230
39.0700 6865.3344
39.0800 6867.1762
39.0900 6834.2464
39.1000 6817.5074
39.1100 7347.4504
39.1200 7073.9176
39.1300 6957.1272
39.1400 6637.7788
39.1500 6917.7084
39.1600 7144.0576
39.1700 6805.3606
39.1800 6999.5930
39.1900 7395.6828
39.2000 7050.0806
39.2100 7292.4130
39.2200 7433.2854
39.2300 7498.4668
39.2400 7319.0756
39.2500 7196.9792
39.2600 7885.4646
39.2700 7967.2566
39.2800 8011.1972
39.2900 8035.0406
39.3000 8063.3976
39.3100 7888.9746
39.3200 8505.1506
39.3300 8814.5630
39.3400 8508.1754
39.3500 8677.9346
39.3600 8877.7116
39.3700 8958.6482
39.3800 9267.8500
39.3900 9402.3324
39.4000 10001.0254
39.4100 10091.5666
39.4200 9941.1508
39.4300 9990.8870
39.4400 10832.4260
39.4500 10859.4418
39.4600 10868.1046
39.4700 10977.6490
39.4800 10762.5048
39.4900 10832.4992
39.5000 11200.4378
39.5100 11400.7942
39.5200 11372.8150
39.5300 11475.7056
39.5400 11411.3404
39.5500 11519.2968
39.5600 11431.6350
39.5700 11521.0222
39.5800 11701.8254
39.5900 11074.3246
39.6000 11443.0460
39.6100 10724.4890
39.6200 11093.9820
39.6300 10801.1824
39.6400 10779.9584
39.6500 10576.3054
39.6600 10401.2792
39.6700 9653.3838
39.6800 9433.4212
39.6900 9259.6370
39.7000 8946.1596
39.7100 9041.1808
39.7200 8856.0922
39.7300 8638.5172
39.7400 8574.8274
39.7500 8661.4096
39.7600 8386.9360
39.7700 7921.2916
39.7800 7599.0316
39.7900 7237.5546
39.8000 7599.1716
39.8100 7344.5940
39.8200 7003.5538
39.8300 7031.4444
39.8400 7176.8766
39.8500 7109.2472
39.8600 6989.5328
39.8700 6733.3744
39.8800 6772.9956
39.8900 6930.0888
39.9000 6916.6480
39.9100 6592.1268
39.9200 6682.0174
39.9300 6486.4576
39.9400 6727.6360
39.9500 6803.4498
39.9600 6612.0960
39.9700 6798.5266
39.9800 6902.9606
39.9900 6619.8300
40.0000 6532.7412
40.0100 6546.6650
40.0200 6747.5570
40.0300 6358.1270
40.0400 6487.2570
40.0500 6578.7138
40.0600 6554.2558
40.0700 6682.9264
40.0800 6572.6200
40.0900 6457.9074
40.1000 6929.9960
40.1100 6393.1694
40.1200 6284.5590
40.1300 6450.2144
40.1400 6461.2996
40.1500 6660.3580
40.1600 6603.7992
40.1700 6301.6386
40.1800 6432.2014
40.1900 6497.5276
40.2000 6326.8392
40.2100 6431.3432
40.2200 6573.1278
40.2300 6642.3400
40.2400 6582.9130
40.2500 6075.2902
40.2600 6194.6566
40.2700 6337.2156
40.2800 6263.7224
40.2900 6502.0088
40.3000 6323.2398
40.3100 6226.2642
40.3200 6770.8996
40.3300 6788.6340
40.3400 6480.3618
40.3500 6427.9520
40.3600 6361.4612
40.3700 6551.5588
40.3800 6645.1026
40.3900 6561.4904
40.4000 6341.2154
40.4100 6132.8728
40.4200 6515.3064
40.4300 6499.7668
40.4400 6380.9656
40.4500 6377.8602
40.4600 6488.2718
40.4700 6718.1026
40.4800 6709.8034
40.4900 6337.6400
40.5000 6285.5656
40.5100 6433.5808
40.5200 6260.2080
40.5300 6562.4336
40.5400 6436.9898
40.5500 6338.4810
40.5600 6266.9694
40.5700 6382.4568
40.5800 6497.1652
40.5900 6497.8760
40.6000 6278.5018
40.6100 6406.4568
40.6200 6363.3692
40.6300 6716.3020
40.6400 6479.5564
40.6500 6701.1612
40.6600 6561.6438
40.6700 6377.4698
40.6800 6516.6296
40.6900 6467.5830
40.7000 6405.9590
40.7100 6568.2158
40.7200 6786.3330
40.7300 6422.7068
40.7400 6681.1662
40.7500 6791.0078
40.7600 6753.0506
40.7700 6602.0642
40.7800 6578.2410
40.7900 6461.1454
40.8000 6403.5160
40.8100 6450.3682
40.8200 6431.6220
40.8300 6149.4514
40.8400 6523.5844
40.8500 6384.4848
40.8600 6781.8340
40.8700 6589.8312
40.8800 6793.8920
40.8900 6417.3454
40.9000 6803.2626
40.9100 7115.3898
40.9200 6636.5832
40.9300 6226.9804
40.9400 6747.2306
40.9500 6873.8746
40.9600 7321.2182
40.9700 6725.4060
40.9800 6823.8382
40.9900 7245.8244
41.0000 6765.9468
41.0100 6960.0782
41.0200 6912.0012
41.0300 6754.7164
41.0400 7002.9850
41.0500 6871.8344
41.0600 6841.0270
41.0700 6776.6304
41.0800 7040.2530
41.0900 7044.7038
41.1000 6753.5796
41.1100 6845.2328
41.1200 7161.1848
41.1300 7217.0720
41.1400 7226.9174
41.1500 6969.9112
41.1600 7178.9306
41.1700 7055.8212
41.1800 7313.4522
41.1900 7158.3448
41.2000 7112.9216
41.2100 6889.6810
41.2200 6622.9996
41.2300 6981.8474
41.2400 6987.1402
41.2500 6848.7834
41.2600 6907.1680
41.2700 6928.9322
41.2800 6809.2208
41.2900 6684.0372
41.3000 6562.9924
41.3100 6788.9946
41.3200 6946.2402
41.3300 6649.5492
41.3400 6533.6462
41.3500 6847.2094
41.3600 6694.9056
41.3700 6564.7852
41.3800 6809.0686
41.3900 6718.3732
41.4000 6896.6114
41.4100 6807.0076
41.4200 6310.2088
41.4300 6719.8502
41.4400 6747.6848
41.4500 6473.0354
41.4600 6773.9782
41.4700 6612.2578
41.4800 6361.5072
41.4900 6540.3096
41.5000 6275.1322
41.5100 6535.9742
41.5200 6140.7964
41.5300 6420.2982
41.5400 6646.0214
41.5500 6579.0524
41.5600 6530.6930
41.5700 6597.4218
41.5800 6216.8518
41.5900 6525.2038
41.6000 6171.7078
41.6100 6479.9702
41.6200 6337.9060
41.6300 6530.5160
41.6400 6806.2822
41.6500 6477.4820
41.6600 6257.8930
41.6700 6380.3016
41.6800 6397.8642
41.6900 6363.8692
41.7000 6648.1946
41.7100 6079.5130
41.7200 6154.6818
41.7300 6171.2846
41.7400 6396.9152
41.7500 6648.1848
41.7600 5963.5970
41.7700 6271.7968
41.7800 6474.5642
41.7900 6460.7678
41.8000 6600.9342
41.8100 6367.2148
41.8200 6472.7506
41.8300 6447.1044
41.8400 6302.6734
41.8500 6332.5748
41.8600 6660.2766
41.8700 6678.1026
41.8800 6766.3872
41.8900 6423.1914
41.9000 6222.9008
41.9100 6672.4698
41.9200 6419.5728
41.9300 6356.1422
41.9400 6537.1534
41.9500 6185.1750
41.9600 6346.2634
41.9700 6604.5390
41.9800 6363.7996
41.9900 6235.4562
42.0000 6487.5264
42.0100 6381.3146
42.0200 6582.5386
42.0300 6508.5104
42.0400 6612.2726
42.0500 6552.2966
42.0600 6610.7426
42.0700 6598.1376
42.0800 6131.7054
42.0900 6538.9192
42.1000 6568.7456
42.1100 6692.5106
42.1200 6220.9810
42.1300 6502.6306
42.1400 6601.4082
42.1500 6706.2834
42.1600 6217.6396
42.1700 6367.3784
42.1800 6213.3562
42.1900 6432.1810
42.2000 6847.3568
42.2100 6357.3640
42.2200 6051.0800
42.2300 6187.0808
42.2400 6278.7562
42.2500 6673.9664
42.2600 6598.1026
42.2700 6135.0346
42.2800 6299.1516
42.2900 6374.9076
42.3000 6461.1540
42.3100 6419.0902
42.3200 6561.2666
42.3300 6361.0596
42.3400 6131.1364
42.3500 6343.4848
42.3600 6167.6136
42.3700 6309.3258
42.3800 6294.2484
42.3900 6576.5438
42.4000 6230.0630
42.4100 6551.9616
42.4200 6438.1718
42.4300 6537.0154
42.4400 6482.1028
42.4500 6193.8806
42.4600 6547.8092
42.4700 6402.4764
42.4800 6496.1634
42.4900 6451.1194
42.5000 6367.1154
42.5100 6453.1738
42.5200 6671.7094
42.5300 6390.0248
42.5400 6515.4070
42.5500 6429.8400
42.5600 6361.5974
42.5700 6494.4336
42.5800 6138.5530
42.5900 6362.9756
42.6000 6594.0048
42.6100 6284.4316
42.6200 6255.8834
42.6300 6509.4788
42.6400 6467.5500
42.6500 6623.8754
42.6600 6240.9034
42.6700 6619.3688
42.6800 6382.5696
42.6900 6408.5832
42.7000 6483.9254
42.7100 6217.6880
42.7200 6162.8154
42.7300 6216.4604
42.7400 6374.2504
42.7500 6457.7914
42.7600 6451.0718
42.7700 6402.7644
42.7800 6102.4800
42.7900 6363.8440
42.8000 6514.5646
42.8100 6334.4568
42.8200 6281.4192
42.8300 6172.0532
42.8400 6539.3196
42.8500 6649.8002
42.8600 6567.8410
42.8700 6390.4196
42.8800 6261.7850
42.8900 6677.5916
42.9000 6539.3318
42.9100 6381.3444
42.9200 6525.1970
42.9300 6283.9904
42.9400 6430.4406
42.9500 6494.8410
42.9600 6680.3772
42.9700 6641.5120
42.9800 6706.0824
42.9900 6486.7282
43.0000 6165.8220
43.0100 6433.0510
43.0200 6558.5778
43.0300 6050.4118
43.0400 6234.5650
43.0500 6709.7026
43.0600 6523.9444
43.0700 6522.4618
43.0800 6448.7956
43.0900 6598.5534
43.1000 6298.9214
43.1100 6278.0042
43.1200 6235.0956
43.1300 6321.5406
43.1400 6611.5670
43.1500 6777.0316
43.1600 6361.8470
43.1700 6753.8240
43.1800 6059.1418
43.1900 5973.5774
43.2000 6472.5082
43.2100 6297.1172
43.2200 6418.4620
43.2300 6555.1774
43.2400 6693.2674
43.2500 6421.8802
43.2600 6380.3874
43.2700 6295.3606
43.2800 6319.3440
43.2900 6564.2484
43.3000 6717.9680
43.3100 6491.3440
43.3200 6579.1338
43.3300 6462.1732
43.3400 6249.1646
43.3500 6184.5248
43.3600 6403.3512
43.3700 6359.5594
43.3800 6322.3422
43.3900 6560.0964
43.4000 6196.4840
43.4100 6365.0826
43.4200 6315.7084
43.4300 6436.6578
43.4400 6694.2244
43.4500 6615.5416
43.4600 6716.4694
43.4700 6696.5820
43.4800 6072.2754
43.4900 6647.1516
43.5000 6414.1638
43.5100 6595.7284
43.5200 6424.5438
43.5300 6635.6800
43.5400 6495.9982
43.5500 6368.7500
43.5600 6553.6486
43.5700 6484.1202
43.5800 6251.3884
43.5900 6508.3244
43.6000 6681.1068
43.6100 6091.9396
43.6200 6617.2168
43.6300 6700.1896
43.6400 6781.4214
43.6500 6592.7648
43.6600 6391.8794
43.6700 5839.4470
43.6800 6166.9186
43.6900 6391.0682
43.7000 6615.3344
43.7100 6696.2688
43.7200 6408.3672
43.7300 6283.2276
43.7400 6524.1810
43.7500 6108.1774
43.7600 6454.2728
43.7700 6432.1440
43.7800 6572.4764
43.7900 6687.2852
43.8000 6564.5650
43.8100 6475.2148
43.8200 6560.8590
43.8300 6269.3010
43.8400 6868.6874
43.8500 6486.3644
43.8600 6267.8414
43.8700 6553.1104
43.8800 6700.5018
43.8900 6076.1942
43.9000 6762.1484
43.9100 6541.2684
43.9200 6476.6846
43.9300 6176.7578
43.9400 6256.6724
43.9500 6447.3478
43.9600 6476.9034
43.9700 6606.5080
43.9800 6633.3654
43.9900 6678.5734
44.0000 6804.4360
44.0100 6588.9852
44.0200 6791.4180
44.0300 6335.3886
44.0400 6612.5692
44.0500 6401.7656
44.0600 6903.9258
44.0700 6730.9680
44.0800 6850.2766
44.0900 6574.6472
44.1000 6758.9884
44.1100 6236.0034
44.1200 6401.0250
44.1300 6909.9960
44.1400 7035.2246
44.1500 6565.2690
44.1600 6512.5956
44.1700 6532.7902
44.1800 6444.6994
44.1900 6751.7058
44.2000 6519.6362
44.2100 6255.0122
44.2200 6334.5922
44.2300 6347.3226
44.2400 6653.5872
44.2500 6646.0038
44.2600 6610.4398
44.2700 6593.6100
44.2800 6672.5016
44.2900 6833.9592
44.3000 6089.8124
44.3100 6067.5232
44.3200 6504.4450
44.3300 6358.0546
44.3400 6741.6308
44.3500 6332.8426
44.3600 6434.7156
44.3700 6372.6412
44.3800 6529.5658
44.3900 6655.1018
44.4000 6488.9836
44.4100 6234.2700
44.4200 6798.8676
44.4300 6647.2050
44.4400 6787.0000
44.4500 6620.5420
44.4600 6511.2060
44.4700 6973.3626
44.4800 6795.8956
44.4900 6657.1142
44.5000 6648.7830
44.5100 6826.4798
44.5200 6303.0114
44.5300 6754.8812
44.5400 6483.1868
44.5500 6720.0130
44.5600 6729.2948
44.5700 6349.5410
44.5800 6809.6786
44.5900 6537.1338
44.6000 6769.6802
44.6100 6481.5136
44.6200 7023.6726
44.6300 6438.3716
44.6400 6631.1524
44.6500 6491.2162
44.6600 6740.4288
44.6700 6847.1762
44.6800 7001.6398
44.6900 6566.9604
44.7000 6896.9498
44.7100 6559.3566
44.7200 6564.7974
44.7300 6530.9656
44.7400 7000.1018
44.7500 6801.6818
44.7600 6802.1448
44.7700 7232.4080
44.7800 6905.6762
44.7900 6745.8752
44.8000 6457.1842
44.8100 6680.3060
44.8200 6416.7036
44.8300 6490.4484
44.8400 6631.2240
44.8500 6770.8672
44.8600 6726.0576
44.8700 6801.8364
44.8800 6588.9946
44.8900 6490.2168
44.9000 6420.9708
44.9100 6746.7504
44.9200 6643.6792
44.9300 6515.9664
44.9400 6687.2750
44.9500 6725.9252
44.9600 6393.8700
44.9700 6441.9214
44.9800 6700.2686
44.9900 6444.2456
45.0000 6123.8066
45.0100 6786.7648
45.0200 6826.4506
45.0300 6713.4860
45.0400 7278.8672
45.0500 6720.1684
45.0600 6891.5926
45.0700 6972.5642
45.0800 7166.6830
45.0900 6523.8160
45.1000 6800.9156
45.1100 6754.0466
45.1200 6955.6844
45.1300 6697.2360
45.1400 6678.3508
45.1500 6599.2154
45.1600 6935.3198
45.1700 6678.2988
45.1800 6378.9884
45.1900 6553.6494
45.2000 6743.9360
45.2100 6407.3654
45.2200 6659.5976
45.2300 6943.3634
45.2400 6897.7416
45.2500 6877.1590
45.2600 7061.8140
45.2700 6858.0444
45.2800 6839.8364
45.2900 7195.8634
45.3000 7348.8468
45.3100 6996.4038
45.3200 7102.4430
45.3300 7474.8404
45.3400 7593.1966
45.3500 7570.7088
45.3600 7454.9122
45.3700 7703.8094
45.3800 7874.6516
45.3900 7412.9436
45.4000 7168.8640
45.4100 7546.6382
45.4200 7995.8016
45.4300 7759.1016
45.4400 7869.0974
45.4500 7992.9696
45.4600 7953.9332
45.4700 7889.2432
45.4800 8328.5376
45.4900 8430.5510
45.5000 7735.4590
45.5100 7996.6666
45.5200 8474.5150
45.5300 8640.5420
45.5400 8654.4710
45.5500 8933.8184
45.5600 8726.5324
45.5700 8802.8100
45.5800 8284.4092
45.5900 8470.7512
45.6000 8682.0264
45.6100 8502.9964
45.6200 9079.5068
45.6300 8992.4454
45.6400 8866.0180
45.6500 9233.9136
45.6600 8873.9990
45.6700 9405.9180
45.6800 9377.6978
45.6900 9652.3218
45.7000 9822.5570
45.7100 9581.0758
45.7200 9946.7058
45.7300 10223.3366
45.7400 10012.1998
45.7500 9916.7122
45.7600 10719.4604
45.7700 10806.7928
45.7800 10789.3904
45.7900 11277.5236
45.8000 11025.6902
45.8100 11568.8948
45.8200 11857.5602
45.8300 11786.0116
45.8400 12738.5164
45.8500 12945.8358
45.8600 13068.2862
45.8700 12941.3476
45.8800 13846.9514
45.8900 14162.5830
45.9000 15265.8366
45.9100 15048.8020
45.9200 15427.7604
45.9300 16517.8272
45.9400 16147.9460
45.9500 16754.1472
45.9600 17028.0436
45.9700 17385.0830
45.9800 17430.4314
45.9900 17945.1384
46.0000 18281.9824
46.0100 18643.4994
46.0200 18861.5804
46.0300 18482.3014
46.0400 19104.8388
46.0500 18892.0540
46.0600 18870.1090
46.0700 19241.0368
46.0800 19022.4088
46.0900 19018.9942
46.1000 18748.3806
46.1100 19051.7806
46.1200 18388.4928
46.1300 17846.3884
46.1400 18109.6110
46.1500 17296.0156
46.1600 17081.5626
46.1700 16835.2784
46.1800 16171.4192
46.1900 15769.0624
46.2000 15133.5270
46.2100 14755.4752
46.2200 14612.2022
46.2300 13963.6686
46.2400 13864.5134
46.2500 13091.6024
46.2600 12384.8796
46.2700 12495.9628
46.2800 12043.9950
46.2900 10847.8116
46.3000 10935.8098
46.3100 10877.1900
46.3200 9966.8790
46.3300 9842.7540
46.3400 9741.9882
46.3500 9237.3422
46.3600 8843.1478
46.3700 8409.5736
46.3800 8641.0278
46.3900 8115.3598
46.4000 8153.3276
46.4100 7905.3296
46.4200 7404.8852
46.4300 7385.9270
46.4400 6826.4184
46.4500 7214.4156
46.4600 7277.0622
46.4700 7062.7002
46.4800 6999.1122
46.4900 7270.0292
46.5000 7184.8194
46.5100 6490.9270
46.5200 7007.0232
46.5300 7021.9710
46.5400 7032.0638
46.5500 6918.5140
46.5600 6777.0198
46.5700 6675.2316
46.5800 6781.2704
46.5900 6853.0834
46.6000 6847.6498
46.6100 6816.2618
46.6200 6748.0864
46.6300 6694.7322
46.6400 6677.1610
46.6500 6957.2860
46.6600 6878.9404
46.6700 6583.3650
46.6800 6474.1516
46.6900 6508.9462
46.7000 6635.1196
46.7100 6907.2722
46.7200 6727.9786
46.7300 6698.8000
46.7400 6507.4040
46.7500 6894.7550
46.7600 6680.2986
46.7700 6812.3970
46.7800 6400.5078
46.7900 6776.0656
46.8000 6914.2798
46.8100 7261.0994
46.8200 6863.9086
46.8300 6914.6240
46.8400 6618.3240
46.8500 6847.1516
46.8600 6765.7910
46.8700 6295.3500
46.8800 6900.6868
46.8900 6794.1406
46.9000 6760.0284
46.9100 6687.1866
46.9200 6850.9506
46.9300 6689.6668
46.9400 6977.1752
46.9500 6977.5196
46.9600 6503.3772
46.9700 6832.9802
46.9800 6843.6410
46.9900 6807.6872
47.0000 6962.7474
47.0100 7126.2028
47.0200 7072.7140
47.0300 7104.6078
47.0400 6960.2068
47.0500 6832.1932
47.0600 6842.6018
47.0700 7092.0776
47.0800 6580.7352
47.0900 6607.4096
47.1000 6582.1362
47.1100 6716.6882
47.1200 6842.8426
47.1300 6751.6488
47.1400 6696.0926
47.1500 6835.3484
47.1600 6990.3084
47.1700 6701.7514
47.1800 6682.5740
47.1900 6710.0972
47.2000 6537.6550
47.2100 6524.3518
47.2200 6407.0976
47.2300 6455.9684
47.2400 6448.4240
47.2500 6396.8628
47.2600 6641.6354
47.2700 6969.3604
47.2800 6322.8020
47.2900 6994.7892
47.3000 6814.5634
47.3100 6564.6122
47.3200 6716.8718
47.3300 6599.7140
47.3400 6566.6236
47.3500 6632.5192
47.3600 6664.1126
47.3700 6659.2008
47.3800 6497.2274
47.3900 6337.9284
47.4000 6449.0966
47.4100 6703.5864
47.4200 6605.4228
47.4300 7007.5318
47.4400 6871.8668
47.4500 6387.4732
47.4600 6473.7866
47.4700 6590.6222
47.4800 6478.7496
47.4900 6490.3174
47.5000 6578.8798
47.5100 6571.7712
47.5200 6467.2600
47.5300 6668.5644
47.5400 6263.6426
47.5500 6397.3450
47.5600 6658.5104
47.5700 6594.3738
47.5800 6437.6856
47.5900 6422.0104
47.6000 6303.5120
47.6100 6526.4100
47.6200 6946.1832
47.6300 6732.2234
47.6400 6795.4996
47.6500 6557.1912
47.6600 6361.1088
47.6700 6857.5432
47.6800 7152.0492
47.6900 6344.5300
47.7000 6139.3758
47.7100 6447.5806
47.7200 6623.7228
47.7300 6383.7418
47.7400 6493.3736
47.7500 6627.8142
47.7600 6389.3432
47.7700 6510.4732
47.7800 6443.0550
47.7900 6585.9864
47.8000 6320.0578
47.8100 6747.0776
47.8200 6623.5184
47.8300 6516.4222
47.8400 6623.4130
47.8500 6504.5568
47.8600 6522.7164
47.8700 6507.3458
47.8800 6326.0922
47.8900 6261.2582
47.9000 6431.6574
47.9100 6180.0052
47.9200 6451.1898
47.9300 6626.2666
47.9400 6559.2256
47.9500 6381.3786
47.9600 6249.6260
47.9700 6321.4572
47.9800 6198.9702
47.9900 6264.3258
48.0000 6629.0052
48.0100 6541.9682
48.0200 6428.9554
48.0300 6427.0402
48.0400 6596.9096
48.0500 6617.0552
48.0600 6445.9708
48.0700 6506.0124
48.0800 6464.4002
48.0900 6291.3948
48.1000 6272.4414
48.1100 6380.5126
48.1200 6640.5586
48.1300 6852.3746
48.1400 6659.4836
48.1500 6084.1850
48.1600 6209.3274
48.1700 6306.2106
48.1800 6466.7366
48.1900 6416.3526
48.2000 6600.5440
48.2100 6752.7540
48.2200 6554.2534
48.2300 6535.1258
48.2400 6276.9612
48.2500 6513.0762
48.2600 6467.4752
48.2700 6278.0586
48.2800 6701.8534
48.2900 6464.9830
48.3000 6327.1496
48.3100 6437.7946
48.3200 6519.7230
48.3300 6453.8876
48.3400 6162.0316
48.3500 6574.1170
48.3600 6376.1760
48.3700 6311.5202
48.3800 6444.6444
48.3900 6495.2494
48.4000 6604.0564
48.4100 6804.5988
48.4200 6504.7230
48.4300 6129.7338
48.4400 6114.3624
48.4500 6404.8796
48.4600 6671.4734
48.4700 6285.7964
48.4800 6522.6380
48.4900 6488.1364
48.5000 6312.9956
48.5100 5959.7286
48.5200 6673.0884
48.5300 6569.7892
48.5400 6510.2572
48.5500 6469.9540
48.5600 6213.0250
48.5700 6078.7622
48.5800 6283.9336
48.5900 6631.7102
48.6000 6529.1520
48.6100 6279.1504
48.6200 6325.6242
48.6300 6226.7846
48.6400 6381.2044
48.6500 6637.3710
48.6600 6406.9368
48.6700 6639.6260
48.6800 6478.7354
48.6900 6571.2524
48.7000 6691.2850
48.7100 6568.3594
48.7200 7008.4294
48.7300 6842.3616
48.7400 6573.0326
48.7500 6339.5374
48.7600 6179.4658
48.7700 6235.2430
48.7800 6395.1318
48.7900 6290.9384
48.8000 6343.5526
48.8100 6572.7038
48.8200 6291.4376
48.8300 6412.0032
48.8400 6463.5714
48.8500 6458.7634
48.8600 6365.2812
48.8700 6267.6490
48.8800 6778.8912
48.8900 6422.8638
48.9000 6328.8854
48.9100 6480.0184
48.9200 6162.5276
48.9300 6229.6960
48.9400 5946.3338
48.9500 6419.7400
48.9600 6402.3620
48.9700 6429.4152
48.9800 6672.6998
48.9900 6661.6842
49.0000 6060.5018
49.0100 6376.3420
49.0200 6859.2928
49.0300 6742.7804
49.0400 6486.3754
49.0500 6365.2010
49.0600 6327.4830
49.0700 6231.2870
49.0800 6592.4032
49.0900 6506.9438
49.1000 6280.5904
49.1100 6664.4022
49.1200 6928.7932
49.1300 6286.3074
49.1400 6591.2186
49.1500 6268.8636
49.1600 6615.8248
49.1700 6718.4652
49.1800 6257.7702
49.1900 6564.5104
49.2000 6490.0814
49.2100 6393.9254
49.2200 6333.1018
49.2300 6331.6468
49.2400 6333.8684
49.2500 6153.2446
49.2600 6421.5584
49.2700 6524.8482
49.2800 6348.8636
49.2900 6270.5656
49.3000 6410.4626
49.3100 6610.7100
49.3200 6683.4884
49.3300 6395.8952
49.3400 6346.5136
49.3500 6422.9158
49.3600 6459.7428
49.3700 6099.0638
49.3800 6401.4066
49.3900 6542.0240
49.4000 6487.4788
49.4100 6303.5816
49.4200 6468.1584
49.4300 6368.1580
49.4400 6493.3776
49.4500 6424.2566
49.4600 6295.0528
49.4700 6438.3190
49.4800 6269.2464
49.4900 6513.5474
49.5000 6603.1986
49.5100 6459.3998
49.5200 6829.2928
49.5300 6407.3380
49.5400 6830.6616
49.5500 6674.2378
49.5600 6479.4942
49.5700 6092.8638
49.5800 6577.4210
49.5900 6095.3398
49.6000 6266.8018
49.6100 6407.4690
49.6200 6806.7854
49.6300 6352.2798
49.6400 6524.6782
49.6500 6464.9248
49.6600 6363.1982
49.6700 6742.1460
49.6800 6695.1818
49.6900 6953.8834
49.7000 6458.2678
49.7100 6416.2662
49.7200 6338.5084
49.7300 6155.1038
49.7400 6115.0744
49.7500 6372.3372
49.7600 6563.8152
49.7700 6197.3910
49.7800 6271.6894
49.7900 6047.1534
49.8000 6538.6064
49.8100 6563.7776
49.8200 6503.7594
49.8300 6520.2092
49.8400 6450.3964
49.8500 6538.7552
49.8600 6612.0694
49.8700 6383.4046
49.8800 6430.6896
49.8900 6220.2526
49.9000 6094.9252
49.9100 6439.3306
49.9200 6366.4486
49.9300 6397.1086
49.9400 6506.6460
49.9500 6286.0348
49.9600 6369.1728
49.9700 6677.1880
49.9800 6469.8482
49.9900 6052.0468
50.0000 6340.5916
50.0100 6299.7904
50.0200 6465.7048
50.0300 6701.1226
50.0400 6613.9888
50.0500 6405.4520
50.0600 6482.7422
50.0700 6382.9630
50.0800 6229.3314
50.0900 6318.7972
50.1000 6298.0004
50.1100 6522.0922
50.1200 6128.6006
50.1300 6060.9872
50.1400 6340.9192
50.1500 6445.1766
50.1600 6201.8408
50.1700 6373.3826
50.1800 6531.5280
50.1900 6644.6464
50.2000 6621.3542
50.2100 6178.4424
50.2200 6296.7684
50.2300 6550.4224
50.2400 6044.2012
50.2500 6144.9214
50.2600 6315.1872
50.2700 6319.6638
50.2800 6276.8604
50.2900 6345.5986
50.3000 6386.3968
50.3100 6135.1632
50.3200 6586.1340
50.3300 6373.0660
50.3400 6409.7282
50.3500 6230.3964
50.3600 5881.9258
50.3700 6375.5708
50.3800 6309.1748
50.3900 6685.0070
50.4000 6399.5564
50.4100 6207.1542
50.4200 6504.7860
50.4300 6665.6076
50.4400 6674.5104
50.4500 6422.6766
50.4600 6630.2002
50.4700 6386.9726
50.4800 6337.3152
50.4900 6137.1558
50.5000 6413.6376
50.5100 6497.4712
50.5200 6709.3022
50.5300 6226.0986
50.5400 6452.2102
50.5500 6415.5652
50.5600 6825.9570
50.5700 6487.1920
50.5800 6616.4624
50.5900 6682.3536
50.6000 6514.0080
50.6100 6311.3424
50.6200 6550.5148
50.6300 6707.5310
50.6400 6231.8404
50.6500 6257.8060
50.6600 6074.1964
50.6700 6429.2822
50.6800 6560.8598
50.6900 6447.0060
50.7000 6507.8048
50.7100 6240.9814
50.7200 6470.4200
50.7300 6320.4082
50.7400 6717.4080
50.7500 6647.5928
50.7600 6377.1496
50.7700 6916.7952
50.7800 6547.3286
50.7900 6418.6878
50.8000 6701.8924
50.8100 6737.0630
50.8200 6767.8244
50.8300 6386.8790
50.8400 6476.3810
50.8500 6527.8732
50.8600 6602.1154
50.8700 6523.7532
50.8800 6598.8526
50.8900 6639.3424
50.9000 6162.5948
50.9100 6509.7810
50.9200 6274.2684
50.9300 6620.7320
50.9400 6684.5776
50.9500 6750.7536
50.9600 6178.5164
50.9700 6458.6462
50.9800 6470.8044
50.9900 6419.1776
51.0000 6751.9922
51.0100 6311.5710
51.0200 6297.2152
51.0300 6465.5480
51.0400 6632.4788
51.0500 6495.9956
51.0600 6627.9326
51.0700 6651.2488
51.0800 6455.3808
51.0900 6705.3256
51.1000 6589.9630
51.1100 6884.2432
51.1200 6535.6644
51.1300 6564.1712
51.1400 6555.8862
51.1500 6822.6754
51.1600 6702.3100
51.1700 6597.1888
51.1800 6655.3576
51.1900 6700.6840
51.2000 6832.4236
51.2100 6750.3756
51.2200 6812.2510
51.2300 6694.2846
51.2400 6600.2466
51.2500 6553.9726
51.2600 6797.5476
51.2700 6856.6334
51.2800 6665.1502
51.2900 6583.7744
51.3000 6852.1940
51.3100 6709.0658
51.3200 6699.8320
51.3300 6488.0262
51.3400 6741.5878
51.3500 7095.6430
51.3600 6991.0066
51.3700 6920.2840
51.3800 6564.9358
51.3900 6673.4530
51.4000 6953.6646
51.4100 6545.6994
51.4200 6877.7450
51.4300 7138.3562
51.4400 6573.7468
51.4500 6661.7602
51.4600 6592.8960
51.4700 6498.6528
51.4800 6989.2888
51.4900 6466.7004
51.5000 6692.0142
51.5100 6533.0188
51.5200 6592.1256
51.5300 6619.4266
51.5400 6562.4674
51.5500 6421.8746
51.5600 6441.1946
51.5700 6799.5328
51.5800 6351.4096
51.5900 6592.4862
51.6000 6884.7518
51.6100 6560.5912
51.6200 6515.5598
51.6300 6503.1066
51.6400 6690.9700
51.6500 6811.3374
51.6600 6697.4472
51.6700 6748.1694
51.6800 6639.2126
51.6900 6579.0544
51.7000 6923.2006
51.7100 7093.8492
51.7200 6634.3498
51.7300 6740.8448
51.7400 6813.4896
51.7500 7136.2012
51.7600 6697.1040
51.7700 6735.1140
51.7800 6782.7592
51.7900 6684.0984
51.8000 7150.5136
51.8100 7071.4120
51.8200 6776.2574
51.8300 7105.7650
51.8400 7011.6536
51.8500 6771.6606
51.8600 6870.1856
51.8700 6888.3008
51.8800 7039.0120
51.8900 6922.1842
51.9000 6633.5868
51.9100 7293.6516
51.9200 7124.0966
51.9300 7184.1682
51.9400 7138.2862
51.9500 7237.6936
51.9600 7073.2968
51.9700 7128.7964
51.9800 7121.9132
51.9900 6765.8594
52.0000 7044.8518
52.0100 7124.9796
52.0200 6694.9846
52.0300 6977.8654
52.0400 7002.9882
52.0500 7161.6992
52.0600 7029.3758
52.0700 6920.9700
52.0800 6897.4568
52.0900 6722.0842
52.1000 7216.1914
52.1100 6965.7544
52.1200 6631.2988
52.1300 6911.0140
52.1400 6863.0436
52.1500 6803.1184
52.1600 6744.2632
52.1700 6634.9048
52.1800 6444.4454
52.1900 6614.0148
52.2000 6738.9466
52.2100 6832.5578
52.2200 6349.5488
52.2300 6688.2450
52.2400 6485.2454
52.2500 6444.0284
52.2600 6459.6656
52.2700 6193.0966
52.2800 6477.4508
52.2900 6532.1516
52.3000 6486.0576
52.3100 6867.7702
52.3200 6548.0334
52.3300 6843.8598
52.3400 6595.1494
52.3500 6519.9988
52.3600 6669.2640
52.3700 6489.6618
52.3800 6630.1628
52.3900 6732.9098
52.4000 6736.8222
52.4100 6385.4020
52.4200 6604.2130
52.4300 6997.1834
52.4400 6739.1354
52.4500 6520.2128
52.4600 6342.5314
52.4700 6329.5930
52.4800 6408.8936
52.4900 6620.0052
52.5000 6871.1344
52.5100 6445.1664
52.5200 6256.5360
52.5300 6441.1288
52.5400 6383.5226
52.5500 6366.6028
52.5600 6631.9324
52.5700 6190.6612
52.5800 6667.6616
52.5900 6366.6842
52.6000 6335.1114
52.6100 6389.5826
52.6200 6097.7750
52.6300 6834.4954
52.6400 6701.6260
52.6500 6459.2310
52.6600 5895.1140
52.6700 6517.1082
52.6800 6907.9590
52.6900 6419.0954
52.7000 6244.6268
52.7100 6028.6226
52.7200 6525.2312
52.7300 6115.3592
52.7400 6099.1810
52.7500 6503.7040
52.7600 6175.8622
52.7700 6004.5472
52.7800 6115.6600
52.7900 6206.6740
52.8000 6262.0536
52.8100 6414.2334
52.8200 6658.3570
52.8300 6261.3786
52.8400 6445.3740
52.8500 6273.3260
52.8600 6322.1192
52.8700 6318.7724
52.8800 6584.1224
52.8900 6576.4656
52.9000 6578.9970
52.9100 6274.4352
52.9200 6294.8112
52.9300 6403.5192
52.9400 6335.7276
52.9500 6460.4048
52.9600 6263.5640
52.9700 6543.4668
52.9800 6369.0402
52.9900 6761.4942
53.0000 6584.3770
53.0100 6464.6098
53.0200 6646.8562
53.0300 6215.7048
53.0400 6191.4474
53.0500 6460.9392
53.0600 6334.2444
53.0700 6684.2326
53.0800 7000.4622
53.0900 6846.7252
53.1000 6823.0920
53.1100 6816.8648
53.1200 6686.1722
53.1300 6839.3668
53.1400 6472.5256
53.1500 6377.0056
53.1600 6437.2946
53.1700 6387.1586
53.1800 6523.5196
53.1900 6183.6642
53.2000 6542.4092
53.2100 6751.4062
53.2200 6345.7804
53.2300 6965.0074
53.2400 6317.7278
53.2500 6540.3374
53.2600 6352.8584
53.2700 6355.1714
53.2800 6179.2574
53.2900 6487.3404
53.3000 6480.5840
53.3100 6370.6218
53.3200 6473.3936
53.3300 6578.8192
53.3400 6332.8398
53.3500 6588.0722
53.3600 6375.2214
53.3700 6836.7700
53.3800 6626.1194
53.3900 6513.0400
53.4000 6510.1742
53.4100 6609.7006
53.4200 6641.6914
53.4300 6899.1268
53.4400 6571.8820
53.4500 6328.1612
53.4600 6355.3828
53.4700 6556.4766
53.4800 6493.1482
53.4900 6535.7828
53.5000 6642.9890
53.5100 6451.9254
53.5200 6327.1342
53.5300 6174.0218
53.5400 6328.3650
53.5500 6266.9958
53.5600 6396.5638
53.5700 6708.6250
53.5800 6233.9172
53.5900 6483.3350
53.6000 6250.4142
53.6100 6364.8250
53.6200 6617.6676
53.6300 6026.0078
53.6400 6327.0532
53.6500 6630.2360
53.6600 6447.0390
53.6700 5899.3812
53.6800 6005.9286
53.6900 6262.6424
53.7000 6185.1900
53.7100 6672.9708
53.7200 6544.2846
53.7300 6288.5994
53.7400 6617.6530
53.7500 6715.7202
53.7600 6339.5732
53.7700 6205.6726
53.7800 6193.3492
53.7900 6374.6786
53.8000 6763.4306
53.8100 6181.3196
53.8200 6482.5248
53.8300 6510.0066
53.8400 6746.8086
53.8500 6821.6146
53.8600 6473.4452
53.8700 6218.9502
53.8800 6341.1934
53.8900 6059.3656
53.9000 6419.4384
53.9100 6648.6966
53.9200 5987.6770
53.9300 6340.1856
53.9400 6472.8434
53.9500 6231.2292
53.9600 6070.1200
53.9700 5940.0656
53.9800 6696.5178
53.9900 6549.4372
54.0000 6562.6676
54.0100 6736.0730
54.0200 6165.5518
54.0300 6553.4012
54.0400 6622.5248
54.0500 6506.7224
54.0600 6335.0402
54.0700 6398.8172
54.0800 6357.7218
54.0900 6490.9574
54.1000 6457.0552
54.1100 6498.2804
54.1200 6519.8304
54.1300 6404.8848
54.1400 6343.2800
54.1500 6337.1082
54.1600 6355.8520
54.1700 6543.4456
54.1800 6373.3060
54.1900 6640.3910
54.2000 6346.0522
54.2100 6277.2168
54.2200 6543.8762
54.2300 6142.7812
54.2400 6575.0854
54.2500 6421.7098
54.2600 6650.9734
54.2700 6199.7710
54.2800 6400.0078
54.2900 6247.0398
54.3000 6451.1132
54.3100 6643.4038
54.3200 6386.2460
54.3300 6781.1146
54.3400 6433.6626
54.3500 6544.1272
54.3600 6538.3634
54.3700 6783.8216
54.3800 6199.8336
54.3900 6894.0804
54.4000 6670.5082
54.4100 6146.5730
54.4200 6392.1134
54.4300 6503.0468
54.4400 6643.1690
54.4500 6637.0638
54.4600 6636.5474
54.4700 6336.8380
54.4800 6440.6286
54.4900 6471.7464
54.5000 6647.7194
54.5100 6623.5364
54.5200 6400.6674
54.5300 6683.1754
54.5400 6326.5158
54.5500 6321.2516
54.5600 6299.3400
54.5700 6654.0572
54.5800 6259.3498
54.5900 6374.6012
54.6000 6441.3736
54.6100 6403.9790
54.6200 6446.9624
54.6300 6524.2566
54.6400 6445.3812
54.6500 6578.4566
54.6600 6751.0844
54.6700 6681.3342
54.6800 6469.5122
54.6900 6742.3812
54.7000 6312.2970
54.7100 6717.3352
54.7200 6623.1962
54.7300 6515.9282
54.7400 6369.1386
54.7500 6791.2084
54.7600 6382.2892
54.7700 6617.2498
54.7800 6626.7778
54.7900 6855.8562
54.8000 6511.1650
54.8100 6421.5568
54.8200 6374.7868
54.8300 6866.4892
54.8400 6540.7536
54.8500 6736.1084
54.8600 6424.3884
54.8700 5997.5684
54.8800 6427.3844
54.8900 6695.1794
54.9000 6649.0166
54.9100 6670.7316
54.9200 6534.0068
54.9300 6597.4222
54.9400 6405.0870
54.9500 6550.3512
54.9600 6406.4604
54.9700 6404.6842
54.9800 6737.9188
54.9900 6841.1280
55.0000 6386.6570
55.0100 6599.1692
55.0200 6787.3442
55.0300 6678.1100
55.0400 6876.0458
55.0500 6916.9376
55.0600 6882.8500
55.0700 6638.4236
55.0800 6571.7900
55.0900 6662.7490
55.1000 6666.9906
55.1100 6140.2608
55.1200 6706.3440
55.1300 7032.9460
55.1400 6320.8554
55.1500 6711.0930
55.1600 6287.6832
55.1700 6210.7714
55.1800 6200.2526
55.1900 6729.4734
55.2000 6720.7024
55.2100 6429.9988
55.2200 6682.0170
55.2300 6596.2688
55.2400 6623.5078
55.2500 6619.8296
55.2600 6594.4584
55.2700 6601.4254
55.2800 6649.9012
55.2900 6668.3984
55.3000 6514.1670
55.3100 7084.2636
55.3200 6738.4676
55.3300 6541.7924
55.3400 6609.3522
55.3500 6707.0568
55.3600 6489.8584
55.3700 6480.1010
55.3800 6495.8052
55.3900 6410.6388
55.4000 6385.5982
55.4100 6430.1554
55.4200 6464.6408
55.4300 6589.6276
55.4400 6476.1064
55.4500 6563.1706
55.4600 6177.6782
55.4700 6436.5760
55.4800 6524.4576
55.4900 6618.5958
55.5000 6177.6700
55.5100 6341.1866
55.5200 6524.3750
55.5300 6419.1142
55.5400 6994.4986
55.5500 6695.5758
55.5600 6984.0878
55.5700 6881.1490
55.5800 6583.0224
55.5900 6826.0560
55.6000 6370.9130
55.6100 6528.0180
55.6200 6475.2766
55.6300 6524.8522
55.6400 6775.2278
55.6500 6582.4386
55.6600 6661.5898
55.6700 6061.3350
55.6800 6625.4630
55.6900 7020.8154
55.7000 7159.1276
55.7100 6765.3512
55.7200 6545.9790
55.7300 6454.9198
55.7400 6385.2294
55.7500 6886.5950
55.7600 6624.4242
55.7700 6070.0220
55.7800 6383.2950
55.7900 6937.4568
55.8000 6928.9486
55.8100 6590.2198
55.8200 6161.1398
55.8300 6757.2062
55.8400 6711.3802
55.8500 6631.2064
55.8600 6531.6948
55.8700 6793.2958
55.8800 6469.1784
55.8900 6653.5584
55.9000 6438.4274
55.9100 6506.5722
55.9200 7055.7878
55.9300 6858.9160
55.9400 6517.1408
55.9500 6556.1268
55.9600 6611.2562
55.9700 6826.4534
55.9800 6594.1952
55.9900 6486.5202
56.0000 6468.5918
56.0100 6124.6980
56.0200 6319.7660
56.0300 6820.3430
56.0400 6791.6390
56.0500 6240.5612
56.0600 6453.3060
56.0700 6606.1242
56.0800 6813.5298
56.0900 6319.2228
56.1000 6415.1908
56.1100 6738.4774
56.1200 6477.5740
56.1300 6702.4712
56.1400 6809.5862
56.1500 6511.6650
56.1600 6760.2596
56.1700 6743.7476
56.1800 6818.2552
56.1900 6843.0574
56.2000 6954.7526
56.2100 6938.6368
56.2200 6969.4962
56.2300 6909.3400
56.2400 7545.5818
56.2500 7034.5956
56.2600 6630.0240
56.2700 6970.6438
56.2800 7430.1546
56.2900 7235.0252
56.3000 7003.8012
56.3100 7100.1318
56.3200 7063.7076
56.3300 7111.1588
56.3400 7069.3628
56.3500 7123.2154
56.3600 7239.1666
56.3700 7347.8296
56.3800 7221.4884
56.3900 7279.7836
56.4000 7094.3734
56.4100 7151.2818
56.4200 7206.3810
56.4300 7539.8006
56.4400 7564.4092
56.4500 7040.0610
56.4600 7586.9620
56.4700 7756.5568
56.4800 7409.6436
56.4900 7361.5088
56.5000 6945.6770
56.5100 7368.9444
56.5200 7114.7900
56.5300 7110.4004
56.5400 7360.9164
56.5500 7100.7162
56.5600 7402.2348
56.5700 7346.1686
56.5800 7088.7158
56.5900 7532.8580
56.6000 7628.2024
56.6100 7278.5214
56.6200 7489.6004
56.6300 7577.0712
56.6400 7367.6726
56.6500 6978.0184
56.6600 7429.8860
56.6700 7096.4322
56.6800 7563.7654
56.6900 7229.7592
56.7000 7220.4786
56.7100 6998.2722
56.7200 7139.8152
56.7300 7645.0480
56.7400 7276.9678
56.7500 7866.7268
56.7600 7649.6184
56.7700 7202.6376
56.7800 7536.9002
56.7900 7508.8436
56.8000 7535.0806
56.8100 7447.4348
56.8200 7869.2782
56.8300 7845.3824
56.8400 7806.7822
56.8500 8107.9882
56.8600 7700.9936
56.8700 7986.4486
56.8800 7872.8272
56.8900 8014.5826
56.9000 7957.1630
56.9100 8054.9886
56.9200 8356.9760
56.9300 8113.0452
56.9400 8720.8318
56.9500 8664.4034
56.9600 8301.6780
56.9700 8774.1496
56.9800 8869.1098
56.9900 8962.9940
57.0000 8730.4654
57.0100 9156.0206
57.0200 9401.6300
57.0300 9586.4168
57.0400 9740.2644
57.0500 10008.0852
57.0600 10294.1968
57.0700 10396.9646
57.0800 10723.1926
57.0900 10341.9654
57.1000 11383.6572
57.1100 11436.3110
57.1200 12072.1322
57.1300 11945.9684
57.1400 12631.2728
57.1500 12768.8900
57.1600 12681.4144
57.1700 13572.6570
57.1800 14079.4384
57.1900 14287.6172
57.2000 14559.5280
57.2100 14345.3402
57.2200 14971.4828
57.2300 15162.3876
57.2400 16156.2712
57.2500 16587.2478
57.2600 16121.6618
57.2700 17300.4736
57.2800 17776.6928
57.2900 17765.1628
57.3000 18337.6872
57.3100 18035.4428
57.3200 17988.3040
57.3300 19069.5036
57.3400 18963.5660
57.3500 19582.8792
57.3600 20309.9934
57.3700 19871.1264
57.3800 19963.9974
57.3900 20231.3736
57.4000 20329.1064
57.4100 19799.2188
57.4200 19851.0058
57.4300 19648.5792
57.4400 20069.3392
57.4500 19786.9678
57.4600 19216.9824
57.4700 19324.0626
57.4800 19029.4402
57.4900 18755.8952
57.5000 18267.7832
57.5100 17983.6312
57.5200 17855.0602
57.5300 17007.4642
57.5400 17052.2348
57.5500 16448.6198
57.5600 16130.2572
57.5700 15334.5720
57.5800 14601.7236
57.5900 14725.3548
57.6000 13897.4934
57.6100 13383.8590
57.6200 12591.9556
57.6300 13210.4802
57.6400 12463.8842
57.6500 11876.2720
57.6600 11582.2990
57.6700 11187.9760
57.6800 10747.3446
57.6900 10589.9830
57.7000 10238.8004
57.7100 9841.4168
57.7200 9068.3504
57.7300 8835.5086
57.7400 8688.5800
57.7500 8491.0864
57.7600 8658.4570
57.7700 8218.2658
57.7800 7749.6062
57.7900 7950.0016
57.8000 7742.6660
57.8100 7836.8310
57.8200 7594.5972
57.8300 7092.9386
57.8400 7047.9606
57.8500 7084.2888
57.8600 7281.0132
57.8700 7098.7240
57.8800 7076.5210
57.8900 6946.0310
57.9000 7098.8672
57.9100 6963.7834
57.9200 6860.5274
57.9300 6916.6220
57.9400 6727.2490
57.9500 6617.0838
57.9600 7077.9346
57.9700 6900.8268
57.9800 6871.2866
57.9900 6935.0130
58.0000 7095.4940
58.0100 6777.7628
58.0200 6532.3148
58.0300 7018.4774
58.0400 6791.4112
58.0500 6560.9660
58.0600 6637.7124
58.0700 6485.7170
58.0800 6829.7860
58.0900 6790.6320
58.1000 6809.1944
58.1100 6737.9558
58.1200 6490.2458
58.1300 6430.4952
58.1400 6490.6396
58.1500 6815.9856
58.1600 6895.9008
58.1700 6419.8262
58.1800 6245.0724
58.1900 6793.1066
58.2000 6840.8488
58.2100 6278.9808
58.2200 6704.9720
58.2300 6800.8814
58.2400 7042.2208
58.2500 6518.8118
58.2600 6504.4368
58.2700 6592.5390
58.2800 6761.5348
58.2900 6494.6634
58.3000 6512.2688
58.3100 6430.4318
58.3200 6894.5142
58.3300 6839.4654
58.3400 6528.1702
58.3500 6950.5022
58.3600 6662.8724
58.3700 6853.0322
58.3800 6728.8774
58.3900 6721.8762
58.4000 7246.4770
58.4100 6516.1336
58.4200 6545.1696
58.4300 6650.5144
58.4400 6567.3344
58.4500 6749.9846
58.4600 6660.6022
58.4700 6476.9942
58.4800 6854.7632
58.4900 6471.1638
58.5000 7008.5612
58.5100 6991.5910
58.5200 6714.0548
58.5300 6690.4768
58.5400 6654.9004
58.5500 6194.6040
58.5600 6556.2296
58.5700 6632.3120
58.5800 6408.4388
58.5900 6764.5020
58.6000 6549.1626
58.6100 6395.5200
58.6200 6644.7026
58.6300 6479.2444
58.6400 6635.9700
58.6500 6590.5070
58.6600 6554.5418
58.6700 6727.8606
58.6800 6658.4900
58.6900 6279.1216
58.7000 6432.8194
58.7100 6722.8784
58.7200 6430.8052
58.7300 7016.2394
58.7400 6473.4518
58.7500 6262.8394
58.7600 6723.8164
58.7700 6748.8440
58.7800 6446.9572
58.7900 6468.6470
58.8000 6411.7028
58.8100 6430.8440
58.8200 6430.3108
58.8300 6449.5040
58.8400 6445.6238
58.8500 6345.4928
58.8600 6349.1190
58.8700 6069.7778
58.8800 6272.2632
58.8900 6367.2616
58.9000 6428.4034
58.9100 6720.2994
58.9200 6767.2368
58.9300 6763.1514
58.9400 6670.6010
58.9500 6515.9624
58.9600 6598.4350
58.9700 6616.0616
58.9800 6810.4500
58.9900 6946.2834
59.0000 6437.1762
59.0100 6466.0432
59.0200 6470.2628
59.0300 6337.5398
59.0400 6652.2554
59.0500 6633.2942
59.0600 6591.7558
59.0700 6495.0378
59.0800 6504.8746
59.0900 6460.0862
59.1000 6387.7010
59.1100 6186.1646
59.1200 6335.6478
59.1300 6251.4384
59.1400 6424.3730
59.1500 6621.0432
59.1600 7098.8598
59.1700 6660.4414
59.1800 6478.6840
59.1900 6831.1108
59.2000 6809.4628
59.2100 6644.2888
59.2200 6605.6286
59.2300 6401.5670
59.2400 6569.5926
59.2500 6623.6840
59.2600 6589.6102
59.2700 6510.0374
59.2800 6684.7596
59.2900 6745.4330
59.3000 6809.9134
59.3100 6911.8050
59.3200 6482.4694
59.3300 6527.1684
59.3400 6046.9068
59.3500 6591.8916
59.3600 6617.4320
59.3700 6561.6158
59.3800 6234.1992
59.3900 6060.6270
59.4000 6505.7670
59.4100 6449.0210
59.4200 6681.9352
59.4300 6674.6346
59.4400 6345.1388
59.4500 6312.9626
59.4600 6448.0126
59.4700 6642.6058
59.4800 6582.8056
59.4900 6405.3568
59.5000 6393.9336
59.5100 6201.7208
59.5200 6327.9736
59.5300 6472.7534
59.5400 6087.4344
59.5500 6322.1338
59.5600 6964.9268
59.5700 6687.7942
59.5800 6600.6636
59.5900 6377.1516
59.6000 6283.4566
59.6100 6568.3658
59.6200 6590.0736
59.6300 6275.6694
59.6400 6522.7266
59.6500 6665.6022
59.6600 6625.0806
59.6700 6483.5584
59.6800 6686.0290
59.6900 6620.3788
59.7000 6547.4226
59.7100 6537.7164
59.7200 6638.9498
59.7300 6491.9840
59.7400 6323.6650
59.7500 6486.9852
59.7600 6747.2106
59.7700 6625.0406
59.7800 6689.6248
59.7900 6481.6724
59.8000 6489.8824
59.8100 6356.0514
59.8200 6438.8090
59.8300 6291.6940
59.8400 6675.9240
59.8500 6274.2196
59.8600 6548.2218
59.8700 6596.1988
59.8800 6461.3444
59.8900 6118.1230
59.9000 6516.8758
59.9100 6706.9292
59.9200 6978.7540
59.9300 6638.2804
59.9400 6861.6252
59.9500 6838.6678
59.9600 6896.2784
59.9700 6596.8514
59.9800 6450.1950
59.9900 6589.9174
60.0000 6666.0808
60.0100 6679.5826
60.0200 6890.3036
60.0300 6681.2532
60.0400 6363.2840
60.0500 6557.1276
60.0600 6659.1386
60.0700 6936.8302
60.0800 7067.5204
60.0900 6643.1360
60.1000 6904.9634
60.1100 6562.3958
60.1200 6400.7300
60.1300 6445.0406
60.1400 6592.1252
60.1500 6703.3134
60.1600 6759.1968
60.1700 6975.3044
60.1800 6735.6352
60.1900 6765.9868
60.2000 6821.2516
60.2100 6675.9066
60.2200 6321.3184
60.2300 6979.2424
60.2400 7140.6136
60.2500 7045.2522
60.2600 6718.7822
60.2700 6439.4710
60.2800 6416.4326
60.2900 6261.3688
60.3000 6729.7538
60.3100 6967.5398
60.3200 6783.3598
60.3300 6684.8990
60.3400 6739.0018
60.3500 6683.3256
60.3600 6616.1722
60.3700 6781.1816
60.3800 6578.0660
60.3900 6508.6120
60.4000 6385.0012
60.4100 6361.4140
60.4200 6337.2774
60.4300 6443.4664
60.4400 6335.8322
60.4500 6594.8946
60.4600 6665.8610
60.4700 6646.9194
60.4800 6577.3514
60.4900 6677.1940
60.5000 6509.9158
60.5100 6668.3322
60.5200 6070.3340
60.5300 6962.0922
60.5400 6591.5186
60.5500 6239.3184
60.5600 6666.7130
60.5700 6527.1106
60.5800 6436.9938
60.5900 6765.5700
60.6000 6814.0738
60.6100 6290.1676
60.6200 6330.9000
60.6300 6484.0002
60.6400 6532.2502
60.6500 6529.5606
60.6600 6213.5442
60.6700 6079.8360
60.6800 6518.1556
60.6900 6242.5170
60.7000 6603.9576
60.7100 6762.0944
60.7200 6230.8500
60.7300 6384.5174
60.7400 6320.5476
60.7500 6554.2692
60.7600 6354.6086
60.7700 6455.2946
60.7800 6637.6388
60.7900 6588.6682
60.8000 6417.9334
60.8100 6320.3474
60.8200 6635.1750
60.8300 6463.0486
60.8400 6482.7046
60.8500 6541.9646
60.8600 6456.5304
60.8700 6084.4982
60.8800 6492.9790
60.8900 6241.3582
60.9000 6183.3948
60.9100 6674.8734
60.9200 6704.8410
60.9300 6519.2260
60.9400 6371.9084
60.9500 6540.4960
60.9600 6325.6364
60.9700 6568.9714
60.9800 6715.0988
60.9900 6756.8664
61.0000 6725.2534
61.0100 6596.3042
61.0200 6658.7032
61.0300 6713.5860
61.0400 6840.6152
61.0500 6607.0194
61.0600 6738.3228
61.0700 6575.2888
61.0800 6414.1716
61.0900 6280.1212
61.1000 6504.5122
61.1100 6553.1840
61.1200 6304.3660
61.1300 6514.0714
61.1400 6567.6936
61.1500 6440.6050
61.1600 6446.3298
61.1700 6631.2032
61.1800 6248.6068
61.1900 6441.1080
61.2000 6610.3244
61.2100 7049.1666
61.2200 6822.0940
61.2300 6426.4514
61.2400 6295.6896
61.2500 6434.1098
61.2600 6279.9024
61.2700 6333.9754
61.2800 6385.2026
61.2900 6522.0956
61.3000 6510.0798
61.3100 6574.5812
61.3200 6571.5266
61.3300 6708.9336
61.3400 6727.3824
61.3500 6574.8352
61.3600 6740.1318
61.3700 6594.7078
61.3800 6795.7650
61.3900 6572.7872
61.4000 6324.2712
61.4100 6357.4068
61.4200 6685.7996
61.4300 6765.7300
61.4400 6497.0598
61.4500 6507.9960
61.4600 6106.4450
61.4700 6404.7620
61.4800 6376.4368
61.4900 6483.0008
61.5000 6499.3566
61.5100 6857.7710
61.5200 6955.8878
61.5300 6606.0608
61.5400 6379.8812
61.5500 6585.7816
61.5600 6983.3342
61.5700 6570.4174
61.5800 6614.5572
61.5900 6873.9242
61.6000 6387.3266
61.6100 6393.0884
61.6200 6350.5970
61.6300 6634.5552
61.6400 6508.8058
61.6500 6660.3772
61.6600 6621.3322
61.6700 6378.9754
61.6800 6559.6284
61.6900 6378.6450
61.7000 6792.6998
61.7100 6593.8188
61.7200 6629.4764
61.7300 6560.7458
61.7400 6292.6432
61.7500 6645.8276
61.7600 6405.4532
61.7700 6532.6734
61.7800 6459.5386
61.7900 6644.5670
61.8000 6603.3436
61.8100 6566.1064
61.8200 6639.0718
61.8300 6796.4458
61.8400 6836.5300
61.8500 6464.6680
61.8600 7156.6464
61.8700 6974.5948
61.8800 6511.6126
61.8900 6413.9828
61.9000 6785.7048
61.9100 6473.3748
61.9200 6640.5970
61.9300 6711.1470
61.9400 6552.9972
61.9500 6896.3110
61.9600 6484.1374
61.9700 6805.3268
61.9800 6506.2544
61.9900 6627.2750
62.0000 6558.4208
62.0100 6553.7626
62.0200 6696.4238
62.0300 6813.6572
62.0400 6485.4794
62.0500 6244.0394
62.0600 6368.1132
62.0700 6374.2952
62.0800 6374.5866
62.0900 6532.7298
62.1000 6409.0276
62.1100 6391.3156
62.1200 6316.0942
62.1300 5908.1576
62.1400 6321.7260
62.1500 6446.5190
62.1600 6790.9404
62.1700 6719.9614
62.1800 6737.4358
62.1900 6861.1532
62.2000 6654.0152
62.2100 6472.9070
62.2200 6697.9500
62.2300 6370.1738
62.2400 6378.2828
62.2500 6492.4988
62.2600 6798.4534
62.2700 6828.9486
62.2800 6172.6404
62.2900 6645.3520
62.3000 6971.5592
62.3100 6682.0410
62.3200 6464.9658
62.3300 6634.7880
62.3400 6911.0938
62.3500 6838.9274
62.3600 6435.0090
62.3700 6506.0054
62.3800 6784.5260
62.3900 6850.2678
62.4000 6669.6228
62.4100 6771.2696
62.4200 6310.8264
62.4300 6396.6504
62.4400 6911.4900
62.4500 6245.7894
62.4600 6436.9852
62.4700 6755.8472
62.4800 6492.6750
62.4900 6625.6066
62.5000 6394.3888
62.5100 6662.5882
62.5200 6300.4394
62.5300 6387.1972
62.5400 6504.4190
62.5500 6537.8854
62.5600 6380.6876
62.5700 6708.4420
62.5800 6612.2054
62.5900 6729.1692
62.6000 6341.6528
62.6100 6431.2842
62.6200 6649.0250
62.6300 6721.3192
62.6400 6335.7052
62.6500 6648.0668
62.6600 6724.6408
62.6700 6542.2302
62.6800 6886.5388
62.6900 6917.3674
62.7000 6832.9070
62.7100 6411.6064
62.7200 6584.4010
62.7300 6772.6608
62.7400 6506.7990
62.7500 6634.0048
62.7600 6526.8672
62.7700 6907.7954
62.7800 6594.8882
62.7900 6808.1058
62.8000 6374.3884
62.8100 6620.4366
62.8200 6524.1796
62.8300 6861.3248
62.8400 6657.5224
62.8500 6571.6590
62.8600 6799.8898
62.8700 6555.6970
62.8800 6768.8248
62.8900 6427.0202
62.9000 6691.5784
62.9100 6836.0026
62.9200 6784.4120
62.9300 6465.5220
62.9400 6227.6766
62.9500 6778.9816
62.9600 6587.4708
62.9700 6667.3702
62.9800 7004.2318
62.9900 7033.4742
63.0000 6923.0826
63.0100 6706.1934
63.0200 6806.7448
63.0300 6653.1848
63.0400 6377.2628
63.0500 6723.4724
63.0600 6699.2374
63.0700 6849.8422
63.0800 6534.2070
63.0900 6803.7178
63.1000 6778.5026
63.1100 6280.1258
63.1200 6280.5132
63.1300 6784.2290
63.1400 6431.1914
63.1500 6578.6398
63.1600 6814.0600
63.1700 6945.0170
63.1800 6726.4714
63.1900 6631.8376
63.2000 6769.8950
63.2100 6912.5406
63.2200 6602.8166
63.2300 6482.8634
63.2400 6712.7856
63.2500 6305.4480
63.2600 6626.2720
63.2700 6811.3900
63.2800 6806.1666
63.2900 6794.5968
63.3000 6656.0730
63.3100 6451.5856
63.3200 6895.2320
63.3300 6852.8320
63.3400 6803.8660
63.3500 6671.8290
63.3600 6638.7028
63.3700 6502.4634
63.3800 6815.0908
63.3900 6664.0040
63.4000 6780.5790
63.4100 6883.8038
63.4200 6717.9178
63.4300 6756.6700
63.4400 6702.7210
63.4500 7036.5340
63.4600 6803.8378
63.4700 6568.9104
63.4800 6569.8002
63.4900 6545.8004
63.5000 6962.6114
63.5100 6953.8110
63.5200 6644.2740
63.5300 6781.9812
63.5400 6771.6260
63.5500 6876.7700
63.5600 6974.1740
63.5700 6659.6252
63.5800 6796.2940
63.5900 6682.2820
63.6000 6912.4154
63.6100 6467.3632
63.6200 6708.0944
63.6300 7104.7786
63.6400 7049.2896
63.6500 6616.3212
63.6600 6308.3394
63.6700 6895.6796
63.6800 6492.2832
63.6900 6787.4598
63.7000 6735.4142
63.7100 6686.5096
63.7200 6921.7090
63.7300 6899.8738
63.7400 6814.3904
63.7500 6963.3374
63.7600 6988.4008
63.7700 6694.8286
63.7800 7037.2038
63.7900 7105.8780
63.8000 6788.1552
63.8100 6742.7552
63.8200 6689.0674
63.8300 6582.2692
63.8400 6648.3920
63.8500 6858.3032
63.8600 6532.7030
63.8700 6721.3924
63.8800 6560.8044
63.8900 6740.1078
63.9000 6974.4662
63.9100 6473.1294
63.9200 6643.5030
63.9300 6501.5980
63.9400 6878.4294
63.9500 6745.5172
63.9600 6720.6250
63.9700 6458.1006
63.9800 6836.5592
63.9900 6371.8078
64.0000 6748.9588
64.0100 6774.5862
64.0200 6383.8562
64.0300 6305.9578
64.0400 6956.1686
64.0500 6611.3876
64.0600 6516.6666
64.0700 6371.8534
64.0800 6526.7546
64.0900 6689.3180
64.1000 6493.9152
64.1100 6509.5434
64.1200 6813.7594
64.1300 6511.0738
64.1400 6400.1864
64.1500 6662.6676
64.1600 6785.9240
64.1700 6605.9078
64.1800 6446.2512
64.1900 6381.9494
64.2000 6468.3854
64.2100 6551.8490
64.2200 6367.5814
64.2300 6334.7628
64.2400 6272.3364
64.2500 6278.3354
64.2600 6493.3594
64.2700 6886.4200
64.2800 6676.9116
64.2900 6481.2464
64.3000 6416.8498
64.3100 6547.8422
64.3200 6699.7832
64.3300 6431.3046
64.3400 6529.8426
64.3500 6753.8086
64.3600 6785.6954
64.3700 6471.5512
64.3800 6225.9342
64.3900 6531.3412
64.4000 6523.7972
64.4100 6830.8334
64.4200 6841.2858
64.4300 6977.6944
64.4400 6543.2194
64.4500 6977.2884
64.4600 6450.6808
64.4700 6655.0342
64.4800 6860.8520
64.4900 5996.5214
64.5000 6321.2582
64.5100 6493.6268
64.5200 6482.7250
64.5300 6422.1566
64.5400 6668.0346
64.5500 6575.0516
64.5600 6645.7434
64.5700 6407.1492
64.5800 6633.7898
64.5900 6533.6344
64.6000 6554.2220
64.6100 6323.4160
64.6200 6348.7924
64.6300 6575.9134
64.6400 6403.6512
64.6500 6390.3134
64.6600 6389.5016
64.6700 6819.7778
64.6800 6715.5286
64.6900 6762.0332
64.7000 6926.8326
64.7100 6473.0362
64.7200 6484.1426
64.7300 6960.7804
64.7400 6345.6246
64.7500 6776.1524
64.7600 6661.7390
64.7700 6132.8694
64.7800 6361.3142
64.7900 6660.0310
64.8000 6791.1992
64.8100 6669.1578
64.8200 6326.8892
64.8300 6528.0844
64.8400 6523.0412
64.8500 6759.8674
64.8600 6811.4836
64.8700 6281.3248
64.8800 6213.6914
64.8900 6447.7738
64.9000 6250.7592
64.9100 6487.8280
64.9200 6605.6062
64.9300 6586.8286
64.9400 6540.0952
64.9500 6627.4292
64.9600 6508.4806
64.9700 6735.7226
64.9800 6209.2350
64.9900 6403.2992
65.0000 6289.1768
65.0100 6458.6706
65.0200 6475.2706
65.0300 6789.2514
65.0400 6619.6110
65.0500 6704.3782
65.0600 6724.0532
65.0700 6464.8202
65.0800 6655.7604
65.0900 6805.0424
65.1000 6531.3656
65.1100 6264.5918
65.1200 6690.5908
65.1300 6565.7694
65.1400 6698.5066
65.1500 6546.1678
65.1600 6448.9376
65.1700 6259.3774
65.1800 6578.1018
65.1900 6601.3742
65.2000 6552.9382
65.2100 6769.8304
65.2200 6928.4602
65.2300 6638.2874
65.2400 6535.4386
65.2500 6705.2006
65.2600 6084.6542
65.2700 6731.2992
65.2800 6482.8520
65.2900 6276.4266
65.3000 6667.3340
65.3100 6439.4194
65.3200 6805.1962
65.3300 6812.7718
65.3400 6894.7714
65.3500 6630.6922
65.3600 6668.7098
65.3700 6607.3800
65.3800 6743.0380
65.3900 6841.4404
65.4000 6774.5308
65.4100 6612.1732
65.4200 6619.0898
65.4300 6651.5372
65.4400 6775.4118
65.4500 6652.4666
65.4600 6444.7636
65.4700 6466.6724
65.4800 6378.9372
65.4900 6473.2132
65.5000 6600.4720
65.5100 6304.3844
65.5200 6355.1994
65.5300 6387.0222
65.5400 6770.1282
65.5500 6455.8562
65.5600 6612.3894
65.5700 6537.6966
65.5800 6451.3334
65.5900 6379.9174
65.6000 6667.2798
65.6100 6786.9756
65.6200 6781.2312
65.6300 6655.8150
65.6400 6585.9696
65.6500 6602.7674
65.6600 6682.4540
65.6700 6358.8172
65.6800 6170.4960
65.6900 6590.3166
65.7000 6601.7782
65.7100 6492.1252
65.7200 6735.3178
65.7300 6764.0182
65.7400 6680.8928
65.7500 6673.4240
65.7600 6703.6646
65.7700 6506.4152
65.7800 6669.6928
65.7900 6782.0324
65.8000 6692.3572
65.8100 6582.7062
65.8200 6892.5504
65.8300 6652.0618
65.8400 6841.3012
65.8500 6876.0922
65.8600 6333.8624
65.8700 6676.3574
65.8800 6346.8408
65.8900 6531.6524
65.9000 6772.0150
65.9100 6579.5438
65.9200 7211.0718
65.9300 6896.0450
65.9400 6594.5210
65.9500 6859.4776
65.9600 6639.3104
65.9700 6446.0160
65.9800 6560.8862
65.9900 6414.2452
66.0000 6691.9392
66.0100 6465.5330
66.0200 6180.6876
66.0300 6244.3734
66.0400 6468.7936
66.0500 6452.5936
66.0600 6530.3446
66.0700 6898.7240
66.0800 6565.5392
66.0900 6523.3418
66.1000 6314.3656
66.1100 6895.7674
66.1200 6478.8176
66.1300 6415.0416
66.1400 6655.2018
66.1500 6566.5426
66.1600 6549.0866
66.1700 6909.7460
66.1800 6714.8658
66.1900 6446.3750
66.2000 6709.0620
66.2100 6584.4926
66.2200 6801.0148
66.2300 6999.8144
66.2400 6502.0260
66.2500 6456.1414
66.2600 6364.6634
66.2700 6705.1440
66.2800 6775.6058
66.2900 6869.6394
66.3000 6614.9964
66.3100 6762.5480
66.3200 6956.8318
66.3300 6629.1402
66.3400 6623.6524
66.3500 6582.3954
66.3600 6810.5542
66.3700 6457.7434
66.3800 6603.1800
66.3900 6987.6620
66.4000 6871.2076
66.4100 6790.4890
66.4200 6647.3434
66.4300 6478.7456
66.4400 6798.9554
66.4500 6466.9792
66.4600 6495.6848
66.4700 6764.6526
66.4800 6510.6424
66.4900 6639.1704
66.5000 6839.7900
66.5100 6690.6446
66.5200 6800.0528
66.5300 6709.5654
66.5400 6834.7648
66.5500 6665.6938
66.5600 6736.9946
66.5700 6705.8752
66.5800 6497.4662
66.5900 6737.0712
66.6000 6780.8236
66.6100 6600.4728
66.6200 6713.4208
66.6300 6768.5534
66.6400 7020.5754
66.6500 6609.9658
66.6600 6746.4916
66.6700 7015.9848
66.6800 7295.5078
66.6900 6840.7014
66.7000 7007.8768
66.7100 6934.3368
66.7200 7094.7046
66.7300 7017.0704
66.7400 6894.5434
66.7500 6983.8704
66.7600 7197.7042
66.7700 7049.3514
66.7800 7166.5600
66.7900 7300.4428
66.8000 7505.5380
66.8100 7086.8856
66.8200 7051.2452
66.8300 7377.8124
66.8400 7430.5826
66.8500 7383.6264
66.8600 7574.4018
66.8700 7054.8300
66.8800 7342.2998
66.8900 7407.5464
66.9000 7828.3586
66.9100 7648.1088
66.9200 7785.5338
66.9300 7812.0720
66.9400 7851.7724
66.9500 7570.1872
66.9600 7990.6698
66.9700 8331.0172
66.9800 8281.4656
66.9900 7866.3834
67.0000 8115.6892
67.0100 8193.6182
67.0200 8108.3138
67.0300 7990.9912
67.0400 8235.7446
67.0500 8123.2146
67.0600 8590.2092
67.0700 8091.9166
67.0800 8546.6780
67.0900 8764.8804
67.1000 8138.0192
67.1100 8877.8720
67.1200 8877.3064
67.1300 8908.2878
67.1400 9231.1450
67.1500 9044.2082
67.1600 9085.5102
67.1700 9578.5636
67.1800 9738.5766
67.1900 9234.0308
67.2000 9370.5990
67.2100 9829.1098
67.2200 10267.6880
67.2300 10050.3248
67.2400 10228.7818
67.2500 10571.0344
67.2600 10860.4200
67.2700 10834.7444
67.2800 11216.1198
67.2900 10580.7600
67.3000 10840.2458
67.3100 11099.4288
67.3200 11646.9882
67.3300 11666.9262
67.3400 11502.1208
67.3500 11816.2232
67.3600 12032.4960
67.3700 11678.3016
67.3800 12135.6176
67.3900 12314.2260
67.4000 12194.0186
67.4100 12600.6674
67.4200 12664.3612
67.4300 12783.3692
67.4400 13428.6336
67.4500 12827.6010
67.4600 12972.0866
67.4700 13256.2638
67.4800 13214.9642
67.4900 12657.4276
67.5000 12974.6590
67.5100 12951.1946
67.5200 13083.2942
67.5300 13068.5294
67.5400 13334.5686
67.5500 13103.9486
67.5600 12738.1534
67.5700 12629.9366
67.5800 12217.6904
67.5900 12207.7254
67.6000 12041.6088
67.6100 11769.4922
67.6200 11061.5096
67.6300 11307.1412
67.6400 11647.9786
67.6500 11053.5360
67.6600 10716.1726
67.6700 10577.0540
67.6800 10512.4056
67.6900 10063.7956
67.7000 9564.1488
67.7100 10132.1638
67.7200 9632.1932
67.7300 9885.4182
67.7400 9380.4744
67.7500 9473.9356
67.7600 8935.5860
67.7700 9177.9182
67.7800 8705.2222
67.7900 8306.6578
67.8000 8253.4472
67.8100 8434.8470
67.8200 8513.4326
67.8300 8162.6164
67.8400 7713.2096
67.8500 7819.4978
67.8600 7587.2038
67.8700 7468.8656
67.8800 7546.8824
67.8900 7429.6720
67.9000 7576.7684
67.9100 7284.1154
67.9200 7096.0368
67.9300 6990.4964
67.9400 7050.1156
67.9500 6972.2086
67.9600 7039.7494
67.9700 6923.4392
67.9800 6717.9114
67.9900 7111.5218
68.0000 7127.5284
68.0100 7347.0214
68.0200 6918.0404
68.0300 6934.1682
68.0400 6978.6360
68.0500 7124.0974
68.0600 6650.7934
68.0700 7166.8970
68.0800 7072.7270
68.0900 7012.4854
68.1000 7104.0348
68.1100 6880.3288
68.1200 6608.2374
68.1300 6851.9148
68.1400 6653.7280
68.1500 6634.7502
68.1600 6882.8288
68.1700 6846.4690
68.1800 6835.9546
68.1900 6974.4938
68.2000 6883.2006
68.2100 6841.9654
68.2200 7080.0764
68.2300 6658.8322
68.2400 7076.1630
68.2500 6755.9204
68.2600 6959.7924
68.2700 6814.1704
68.2800 6877.9638
68.2900 6565.1696
68.3000 6880.2156
68.3100 6593.6048
68.3200 6993.7264
68.3300 6547.7160
68.3400 6656.8250
68.3500 6715.7812
68.3600 7070.4232
68.3700 7160.5770
68.3800 7229.2798
68.3900 6701.4884
68.4000 6541.6328
68.4100 6485.8106
68.4200 6631.4368
68.4300 6758.6300
68.4400 6830.3182
68.4500 6877.3730
68.4600 7133.5164
68.4700 6829.1072
68.4800 6960.7138
68.4900 7013.6556
68.5000 6396.7696
68.5100 6851.8474
68.5200 6619.7364
68.5300 7000.6430
68.5400 6509.2912
68.5500 6710.3340
68.5600 6647.7328
68.5700 6473.5096
68.5800 6485.6922
68.5900 6794.0844
68.6000 6808.2036
68.6100 7065.0260
68.6200 7204.9634
68.6300 6734.3554
68.6400 6823.1580
68.6500 6329.9606
68.6600 6443.1364
68.6700 7030.7202
68.6800 6416.4738
68.6900 6657.7412
68.7000 6629.5020
68.7100 6445.7698
68.7200 6699.5622
68.7300 6453.4680
68.7400 6340.2088
68.7500 6571.6194
68.7600 6718.6238
68.7700 6564.0612
68.7800 6597.1192
68.7900 6842.3446
68.8000 6670.7882
68.8100 6512.0284
68.8200 6769.1220
68.8300 6874.9276
68.8400 6459.0222
68.8500 6382.4576
68.8600 6614.8296
68.8700 6325.4162
68.8800 6400.0484
68.8900 6404.4132
68.9000 6640.1538
68.9100 6678.3150
68.9200 6742.7644
68.9300 6904.0202
68.9400 6560.3658
68.9500 6713.0204
68.9600 6683.3374
68.9700 6509.1366
68.9800 6697.5916
68.9900 6618.3874
69.0000 6541.1324
69.0100 6779.7274
69.0200 6507.1570
69.0300 6471.7896
69.0400 6750.8574
69.0500 6414.0152
69.0600 6409.4894
69.0700 6522.4056
69.0800 6909.6476
69.0900 6808.8496
69.1000 6597.5948
69.1100 6496.0294
69.1200 6567.3296
69.1300 6798.9942
69.1400 6718.2304
69.1500 6828.6500
69.1600 6823.6124
69.1700 6798.6336
69.1800 6788.6158
69.1900 6475.3386
69.2000 6304.1406
69.2100 6476.3754
69.2200 6480.0024
69.2300 6440.8236
69.2400 6955.1464
69.2500 6706.1414
69.2600 6574.0866
69.2700 6894.0536
69.2800 6509.1252
69.2900 6707.9618
69.3000 6328.3658
69.3100 6774.7946
69.3200 6758.5608
69.3300 6435.2820
69.3400 6285.2608
69.3500 6573.8138
69.3600 6579.2098
69.3700 6626.0888
69.3800 6499.0262
69.3900 6610.9464
69.4000 6426.6008
69.4100 6596.3188
69.4200 6670.9960
69.4300 6743.4628
69.4400 6502.5866
69.4500 6484.2492
69.4600 6674.3794
69.4700 6473.4498
69.4800 6584.8026
69.4900 6241.7790
69.5000 6533.6622
69.5100 6569.1098
69.5200 6612.3206
69.5300 6527.2604
69.5400 6584.8718
69.5500 6481.9510
69.5600 6991.4892
69.5700 6569.5426
69.5800 6734.4368
69.5900 6375.1562
69.6000 6777.7632
69.6100 6793.5014
69.6200 6559.6094
69.6300 6293.6890
69.6400 6208.2614
69.6500 6654.0406
69.6600 6655.8814
69.6700 6359.8612
69.6800 6209.9654
69.6900 6615.6046
69.7000 6895.9416
69.7100 6313.6626
69.7200 6690.1042
69.7300 6642.8850
69.7400 6426.1962
69.7500 6541.9194
69.7600 6680.4370
69.7700 6653.6572
69.7800 6588.0530
69.7900 6376.2910
69.8000 6457.4712
69.8100 6338.8200
69.8200 6457.6140
69.8300 6504.7688
69.8400 6784.7676
69.8500 6560.2388
69.8600 6731.3294
69.8700 6294.0620
69.8800 6259.7420
69.8900 6454.8556
69.9000 6725.5730
69.9100 6498.5616
69.9200 6570.3504
69.9300 6405.3348
69.9400 6211.3456
69.9500 6134.1406
69.9600 6404.5516
69.9700 6591.6590
69.9800 6447.5862
69.9900 6400.8854
70.0000 6356.6728
70.0100 6427.7722
70.0200 6262.7168
70.0300 6805.8468
70.0400 6679.0096
70.0500 6465.2454
70.0600 6423.1392
70.0700 6528.7284
70.0800 6513.9242
70.0900 6638.7670
70.1000 6540.2706
70.1100 6446.5170
70.1200 6450.5476
70.1300 6665.1954
70.1400 6688.2988
70.1500 6663.7712
70.1600 6493.8216
70.1700 6420.2320
70.1800 6673.2954
70.1900 6905.7504
70.2000 6393.4884
70.2100 6731.5072
70.2200 6789.5618
70.2300 6142.0340
70.2400 6336.5612
70.2500 6781.2846
70.2600 6423.0876
70.2700 6510.2282
70.2800 6794.9268
70.2900 6756.7228
70.3000 6674.9170
70.3100 6823.2638
70.3200 6806.0656
70.3300 6301.0336
70.3400 6425.1168
70.3500 6451.8498
70.3600 6647.6192
70.3700 6772.0320
70.3800 6898.6670
70.3900 6950.6420
70.4000 6455.1388
70.4100 6584.0418
70.4200 6650.8414
70.4300 6744.5110
70.4400 6810.8358
70.4500 6839.2740
70.4600 6502.8724
70.4700 6463.0810
70.4800 6368.6390
70.4900 6432.0370
70.5000 6778.8362
70.5100 6644.4702
70.5200 6787.5378
70.5300 6578.9750
70.5400 6497.0438
70.5500 6789.9800
70.5600 6852.2404
70.5700 6438.2984
70.5800 6490.7516
70.5900 6672.1928
70.6000 6509.4010
70.6100 6559.1870
70.6200 6723.7236
70.6300 6615.0440
70.6400 6561.2028
70.6500 6302.7604
70.6600 6596.6154
70.6700 6559.2346
70.6800 6615.3238
70.6900 6457.9306
70.7000 6625.7492
70.7100 6409.8182
70.7200 6678.3658
70.7300 6692.2696
70.7400 6364.0706
70.7500 6411.1718
70.7600 6917.5048
70.7700 6678.9722
70.7800 6208.7304
70.7900 6553.8054
70.8000 6893.9730
70.8100 6970.7682
70.8200 6624.6838
70.8300 7088.7802
70.8400 6277.0096
70.8500 6834.2416
70.8600 6933.8736
70.8700 6699.6778
70.8800 6474.5552
70.8900 6477.0358
70.9000 6952.3536
70.9100 6643.5538
70.9200 6676.1284
70.9300 6576.0612
70.9400 6451.6438
70.9500 6537.8336
70.9600 6351.7810
70.9700 6722.4610
70.9800 6637.4984
70.9900 6535.4830
71.0000 6735.2632
71.0100 6775.9270
71.0200 6597.9016
71.0300 6614.5048
71.0400 7110.1758
71.0500 6566.7672
71.0600 6435.4126
71.0700 6440.7622
71.0800 6597.4386
71.0900 6620.8048
71.1000 6433.7484
71.1100 6403.4966
71.1200 6483.9774
71.1300 6684.2016
71.1400 6652.4812
71.1500 6336.3888
71.1600 6472.3746
71.1700 6628.0916
71.1800 6487.1638
71.1900 6752.4800
71.2000 6636.9136
71.2100 6714.5044
71.2200 6577.2164
71.2300 6419.6188
71.2400 6671.5718
71.2500 6771.3582
71.2600 6388.1792
71.2700 6505.4040
71.2800 6495.0180
71.2900 6762.1004
71.3000 6441.6634
71.3100 6567.8214
71.3200 6621.4372
71.3300 6627.4834
71.3400 6543.0114
71.3500 6348.1478
71.3600 6393.4436
71.3700 6255.6518
71.3800 6703.7134
71.3900 6837.2054
71.4000 6694.9210
71.4100 6333.9152
71.4200 6439.1098
71.4300 6468.3224
71.4400 6647.9346
71.4500 6385.6844
71.4600 6554.3718
71.4700 6714.6378
71.4800 6618.9514
71.4900 6629.0556
71.5000 6502.3262
71.5100 6829.3196
71.5200 6731.6272
71.5300 6311.4120
71.5400 6679.0056
71.5500 6623.6272
71.5600 6736.5324
71.5700 6715.8940
71.5800 6572.9920
71.5900 7028.2714
71.6000 6775.7748
71.6100 6622.3156
71.6200 6788.5998
71.6300 6813.9412
71.6400 6912.3446
71.6500 6777.1928
71.6600 6851.7374
71.6700 6796.4750
71.6800 6565.1810
71.6900 6472.7962
71.7000 6643.3044
71.7100 6380.0622
71.7200 6378.6906
71.7300 6314.2378
71.7400 6315.3654
71.7500 6443.0286
71.7600 6476.8820
71.7700 6448.8224
71.7800 6905.4484
71.7900 6931.0546
71.8000 6487.4670
71.8100 6481.6708
71.8200 6430.6518
71.8300 6725.4772
71.8400 6543.4982
71.8500 6708.6466
71.8600 6173.1620
71.8700 7268.4994
71.8800 6685.8838
71.8900 6562.5362
71.9000 6506.1458
71.9100 6676.8282
71.9200 6503.8944
71.9300 6948.9070
71.9400 7148.9690
71.9500 6735.8916
71.9600 6713.8330
71.9700 6622.1354
71.9800 6703.6080
71.9900 6422.6656
72.0000 6567.4336
72.0100 6546.8490
72.0200 6750.5404
72.0300 6821.7240
72.0400 6536.0290
72.0500 7066.3346
72.0600 7375.2726
72.0700 7263.1046
72.0800 6678.3138
72.0900 6788.5762
72.1000 7217.3584
72.1100 7107.6766
72.1200 7169.7542
72.1300 6964.4882
72.1400 6706.9042
72.1500 6551.8892
72.1600 6919.6298
72.1700 6878.6816
72.1800 7114.5134
72.1900 6850.2938
72.2000 6935.4134
72.2100 6517.2034
72.2200 6659.5716
72.2300 6884.0186
72.2400 6787.7864
72.2500 6705.1766
72.2600 7064.3424
72.2700 6980.5362
72.2800 7069.1430
72.2900 7089.1080
72.3000 6873.6312
72.3100 6942.6530
72.3200 7003.7028
72.3300 6856.5820
72.3400 6730.0622
72.3500 7139.4474
72.3600 6723.9534
72.3700 7054.4596
72.3800 6609.6724
72.3900 6580.5574
72.4000 6682.6884
72.4100 6939.7470
72.4200 7009.6794
72.4300 6865.0244
72.4400 7010.5126
72.4500 6699.8144
72.4600 6710.9236
72.4700 6868.6352
72.4800 6923.8860
72.4900 6541.1052
72.5000 6913.0818
72.5100 6875.1596
72.5200 6764.9886
72.5300 6496.8946
72.5400 6731.3164
72.5500 6882.3674
72.5600 6947.3796
72.5700 6915.1188
72.5800 6864.3204
72.5900 6799.6078
72.6000 6626.7834
72.6100 6452.0822
72.6200 6876.5430
72.6300 6662.4740
72.6400 6577.9546
72.6500 6701.9222
72.6600 6727.9768
72.6700 6579.7188
72.6800 6586.1018
72.6900 6400.2954
72.7000 6722.5850
72.7100 6589.1092
72.7200 6585.9928
72.7300 6765.7442
72.7400 6822.6596
72.7500 6606.0522
72.7600 6610.8516
72.7700 7012.0206
72.7800 6851.1800
72.7900 6583.5042
72.8000 6614.4278
72.8100 6693.7158
72.8200 6481.1524
72.8300 6451.2220
72.8400 6350.2612
72.8500 6803.8286
72.8600 6520.2534
72.8700 6749.9402
72.8800 6372.1118
72.8900 6295.0090
72.9000 6915.3288
72.9100 6701.2630
72.9200 6273.4030
72.9300 6621.5388
72.9400 6495.3198
72.9500 6479.9686
72.9600 6261.5230
72.9700 6720.0284
72.9800 6594.4274
72.9900 6388.4408
73.0000 6468.3894
73.0100 6834.1772
73.0200 7012.4236
73.0300 6389.4312
73.0400 6532.0096
73.0500 7036.1548
73.0600 6964.8152
73.0700 6638.5958
73.0800 6182.6132
73.0900 6336.9726
73.1000 6342.9928
73.1100 6430.2042
73.1200 6439.6834
73.1300 6666.3664
73.1400 6606.0356
73.1500 6550.6494
73.1600 6647.5416
73.1700 6520.0904
73.1800 6612.6672
73.1900 6694.2282
73.2000 6665.7002
73.2100 6578.9250
73.2200 6611.3570
73.2300 6759.0666
73.2400 6405.5880
73.2500 6516.2094
73.2600 6937.6188
73.2700 6255.8488
73.2800 6703.6638
73.2900 6652.5904
73.3000 6141.9214
73.3100 6179.4166
73.3200 6868.7418
73.3300 6558.0722
73.3400 6393.4818
73.3500 6580.0668
73.3600 6794.9206
73.3700 6638.4400
73.3800 6397.4344
73.3900 7033.1306
73.4000 6713.6446
73.4100 6614.6298
73.4200 6873.4302
73.4300 6467.5896
73.4400 6542.9252
73.4500 6893.8884
73.4600 6522.2298
73.4700 6477.0276
73.4800 6841.7830
73.4900 6423.0722
73.5000 6844.5134
73.5100 6618.2922
73.5200 6758.7418
73.5300 6505.8086
73.5400 6314.3726
73.5500 6340.6910
73.5600 6727.0512
73.5700 6475.2880
73.5800 6700.5208
73.5900 6763.2572
73.6000 7196.3972
73.6100 6671.7546
73.6200 6460.1086
73.6300 6607.7580
73.6400 6474.2700
73.6500 6544.6888
73.6600 6315.9842
73.6700 6483.7098
73.6800 6622.2156
73.6900 6674.3824
73.7000 6449.6224
73.7100 6529.6012
73.7200 6727.2474
73.7300 6915.6372
73.7400 6803.3532
73.7500 6937.0776
73.7600 6688.4940
73.7700 6717.2966
73.7800 6600.2450
73.7900 6710.5392
73.8000 6496.7644
73.8100 6996.3038
73.8200 6362.1688
73.8300 6382.1862
73.8400 6705.4284
73.8500 6818.8412
73.8600 6673.2870
73.8700 6623.2832
73.8800 6462.8548
73.8900 6841.3518
73.9000 7065.8912
73.9100 6601.9406
73.9200 6482.8226
73.9300 6630.2404
73.9400 6538.1706
73.9500 6495.5534
73.9600 6602.4934
73.9700 6712.5948
73.9800 6510.9956
73.9900 6067.1948
74.0000 6919.4628
74.0100 6678.7780
74.0200 6624.0756
74.0300 6682.6314
74.0400 6373.2068
74.0500 6590.0642
74.0600 6894.3562
74.0700 6709.6558
74.0800 6912.0564
74.0900 6653.9978
74.1000 6677.6510
74.1100 6871.3964
74.1200 6433.9022
74.1300 6476.9682
74.1400 6559.6622
74.1500 6901.7432
74.1600 6455.6812
74.1700 6380.9510
74.1800 6690.2486
74.1900 6749.9944
74.2000 6572.6692
74.2100 6650.5554
74.2200 6822.2342
74.2300 6913.6622
74.2400 6646.2012
74.2500 6781.6056
74.2600 6918.4644
74.2700 6798.1412
74.2800 6660.7450
74.2900 6841.9148
74.3000 6777.7058
74.3100 6573.1864
74.3200 6646.9890
74.3300 6831.4372
74.3400 6673.9664
74.3500 6641.5596
74.3600 6666.8754
74.3700 6459.2066
74.3800 7048.3374
74.3900 7007.6814
74.4000 6631.6418
74.4100 6341.1386
74.4200 6359.1370
74.4300 6832.9858
74.4400 6523.6962
74.4500 6825.7850
74.4600 6498.8184
74.4700 6536.3082
74.4800 6659.8336
74.4900 6779.2074
74.5000 6655.4330
74.5100 6694.8522
74.5200 6602.9102
74.5300 6419.2342
74.5400 6952.3632
74.5500 6523.0716
74.5600 6304.3152
74.5700 6568.1234
74.5800 6963.9852
74.5900 6506.6224
74.6000 6564.2138
74.6100 6757.0682
74.6200 6845.6380
74.6300 6866.9312
74.6400 6988.6402
74.6500 6805.0180
74.6600 6557.4166
74.6700 6679.7806
74.6800 6628.7024
74.6900 6246.0172
74.7000 6381.7386
74.7100 6598.2698
74.7200 6728.7952
74.7300 6925.6080
74.7400 6709.4706
74.7500 6573.3012
74.7600 6736.7550
74.7700 6681.0832
74.7800 6760.5738
74.7900 6583.9990
74.8000 6496.9620
74.8100 6965.3588
74.8200 6593.8248
74.8300 6816.8428
74.8400 6797.4996
74.8500 6947.1428
74.8600 6802.9264
74.8700 6780.4684
74.8800 6770.5970
74.8900 6969.8600
74.9000 6801.7688
74.9100 7171.2402
74.9200 7186.9166
74.9300 6772.7624
74.9400 6893.4546
74.9500 6724.1182
74.9600 6599.8780
74.9700 6863.1340
74.9800 6610.0468
74.9900 6611.6980
75.0000 6867.0328
75.0100 6869.2286
75.0200 6946.5186
75.0300 7259.9130
75.0400 6562.1122
75.0500 6794.2278
75.0600 6714.4384
75.0700 6960.0488
75.0800 6740.5258
75.0900 6658.2934
75.1000 6728.5050
75.1100 6438.2474
75.1200 6989.2326
75.1300 6859.8510
75.1400 6783.4530
75.1500 6990.9904
75.1600 6615.2502
75.1700 6730.1346
75.1800 6667.6700
75.1900 6590.9026
75.2000 6222.4572
75.2100 6708.2894
75.2200 6587.8910
75.2300 6986.7432
75.2400 6747.6144
75.2500 6601.1866
75.2600 6874.4320
75.2700 6855.9660
75.2800 6361.5836
75.2900 6602.2770
75.3000 6796.8234
75.3100 6909.4816
75.3200 6857.5652
75.3300 7047.1370
75.3400 7214.6866
75.3500 6943.0852
75.3600 6372.9806
75.3700 6600.8524
75.3800 6478.8070
75.3900 6568.4138
75.4000 6705.0676
75.4100 6643.4134
75.4200 6946.6398
75.4300 6776.9548
75.4400 7053.6962
75.4500 6691.7342
75.4600 6838.0046
75.4700 6497.1054
75.4800 6740.3898
75.4900 6831.3184
75.5000 6608.2890
75.5100 6698.4456
75.5200 6932.2038
75.5300 7015.0854
75.5400 6579.9222
75.5500 6692.7348
75.5600 6806.6846
75.5700 6863.9680
75.5800 7125.0016
75.5900 6881.1352
75.6000 6690.0956
75.6100 6892.8678
75.6200 6408.0448
75.6300 6565.7706
75.6400 7024.6606
75.6500 6719.3070
75.6600 6999.0600
75.6700 6875.6632
75.6800 7021.0506
75.6900 7105.7178
75.7000 6893.1282
75.7100 6514.9484
75.7200 6662.2974
75.7300 6703.4814
75.7400 7379.2570
75.7500 7239.0486
75.7600 6800.5974
75.7700 6828.1632
75.7800 7132.5326
75.7900 6714.4258
75.8000 7026.4144
75.8100 7173.3072
75.8200 7104.2684
75.8300 6871.3786
75.8400 6945.5818
75.8500 7154.1846
75.8600 7431.7880
75.8700 7464.4166
75.8800 7257.6342
75.8900 7082.9476
75.9000 6818.0936
75.9100 6760.4610
75.9200 7338.1324
75.9300 7300.2148
75.9400 6722.7608
75.9500 6569.0048
75.9600 7161.8376
75.9700 6888.6140
75.9800 6942.8792
75.9900 7243.5636
76.0000 6871.7562
76.0100 7256.2012
76.0200 7238.2096
76.0300 6997.9622
76.0400 7047.5292
76.0500 7548.9828
76.0600 7254.8698
76.0700 6909.8812
76.0800 7128.2902
76.0900 7517.1378
76.1000 7079.2504
76.1100 7040.7406
76.1200 7417.8834
76.1300 7563.4440
76.1400 6994.0194
76.1500 7429.5582
76.1600 7152.9680
76.1700 7250.7910
76.1800 7368.2722
76.1900 7474.1748
76.2000 7151.5804
76.2100 7454.4856
76.2200 7156.8196
76.2300 7408.8632
76.2400 7306.7464
76.2500 7050.7048
76.2600 7682.3038
76.2700 7389.7656
76.2800 7449.5614
76.2900 7489.0560
76.3000 7289.6330
76.3100 7798.5100
76.3200 7696.6162
76.3300 7711.5308
76.3400 7673.5888
76.3500 7350.7984
76.3600 7622.7164
76.3700 7575.3890
76.3800 7827.1762
76.3900 7622.0964
76.4000 7700.3084
76.4100 7885.1400
76.4200 8238.6272
76.4300 8000.0626
76.4400 7900.9326
76.4500 7945.3800
76.4600 8369.1650
76.4700 8277.0240
76.4800 8112.9948
76.4900 8388.3390
76.5000 8157.8320
76.5100 8575.0626
76.5200 8700.3564
76.5300 8384.2098
76.5400 8560.9432
76.5500 8825.9376
76.5600 9047.6970
76.5700 8831.1166
76.5800 9069.6476
76.5900 8752.4130
76.6000 8876.0888
76.6100 8951.9442
76.6200 9218.6052
76.6300 9526.0782
76.6400 9446.8302
76.6500 9476.5634
76.6600 9747.7986
76.6700 9823.1902
76.6800 9718.8876
76.6900 10109.4742
76.7000 9808.7924
76.7100 9897.7612
76.7200 10230.1026
76.7300 10291.5788
76.7400 10138.7784
76.7500 10273.2894
76.7600 10451.5788
76.7700 10446.1744
76.7800 10713.6068
76.7900 10928.2520
76.8000 11179.3172
76.8100 10968.6368
76.8200 11219.8178
76.8300 10880.9708
76.8400 10479.8348
76.8500 10334.9454
76.8600 10426.8832
76.8700 10967.4226
76.8800 10913.2138
76.8900 11331.6292
76.9000 11096.9336
76.9100 10739.6330
76.9200 11349.1324
76.9300 11191.0074
76.9400 10964.1366
76.9500 11320.8146
76.9600 11259.7810
76.9700 10512.9492
76.9800 10850.9472
76.9900 11015.4166
77.0000 10513.6914
77.0100 10365.1416
77.0200 10781.5430
77.0300 10411.1344
77.0400 10033.3496
77.0500 10211.7334
77.0600 9714.7120
77.0700 9839.6054
77.0800 9974.9674
77.0900 9491.9498
77.1000 9371.4738
77.1100 9685.0878
77.1200 8674.9122
77.1300 9183.0144
77.1400 9129.3222
77.1500 8918.6752
77.1600 8513.0070
77.1700 8463.6768
77.1800 8581.2916
77.1900 8637.6684
77.2000 8509.6900
77.2100 8357.8816
77.2200 8456.0588
77.2300 8296.8758
77.2400 8301.9572
77.2500 8164.1170
77.2600 7862.1166
77.2700 8100.1310
77.2800 7737.5830
77.2900 7931.8074
77.3000 7768.7696
77.3100 7461.4672
77.3200 7868.3772
77.3300 7477.9996
77.3400 7580.4516
77.3500 7533.9266
77.3600 7376.1710
77.3700 7541.9840
77.3800 7618.3618
77.3900 6937.7800
77.4000 7400.7430
77.4100 7087.3308
77.4200 7347.9900
77.4300 7111.6586
77.4400 6917.5634
77.4500 7036.9580
77.4600 7229.5556
77.4700 6864.3082
77.4800 6864.1666
77.4900 7245.4778
77.5000 7244.3506
77.5100 7041.8440
77.5200 7024.2000
77.5300 6906.6048
77.5400 7099.3832
77.5500 6833.0722
77.5600 6829.4784
77.5700 6879.0014
77.5800 6994.9348
77.5900 6706.8270
77.6000 6908.0200
77.6100 6915.5436
77.6200 6754.7596
77.6300 7062.4308
77.6400 7178.0136
77.6500 7136.0808
77.6600 7021.8286
77.6700 6678.3126
77.6800 6597.1562
77.6900 6549.9712
77.7000 6849.8658
77.7100 6991.0050
77.7200 6869.1374
77.7300 6814.6944
77.7400 6791.1368
77.7500 7131.0320
77.7600 7119.0170
77.7700 7269.6980
77.7800 7021.8034
77.7900 6751.5136
77.8000 6861.3152
77.8100 6663.2890
77.8200 6896.3306
77.8300 6948.0144
77.8400 7263.9470
77.8500 6791.3496
77.8600 6812.8698
77.8700 6976.4494
77.8800 6794.8352
77.8900 6593.3256
77.9000 6885.9026
77.9100 6778.5176
77.9200 6884.7746
77.9300 7083.5660
77.9400 6529.6826
77.9500 6622.6510
77.9600 6768.0542
77.9700 6830.8894
77.9800 7082.7514
77.9900 6867.3454
78.0000 6666.8212
78.0100 6713.8488
78.0200 6636.1922
78.0300 6489.8662
78.0400 6272.2534
78.0500 6895.2368
78.0600 6911.6602
78.0700 6753.2988
78.0800 6953.3724
78.0900 6551.4078
78.1000 6937.4324
78.1100 6373.1784
78.1200 6704.8844
78.1300 6431.1776
78.1400 6537.5944
78.1500 6781.4290
78.1600 6847.2152
78.1700 6765.6076
78.1800 6370.9392
78.1900 6688.7366
78.2000 6806.1328
78.2100 6989.9642
78.2200 7162.3510
78.2300 6601.5092
78.2400 6553.4484
78.2500 6747.3666
78.2600 6689.1704
78.2700 6869.3448
78.2800 6705.9020
78.2900 6668.7110
78.3000 6798.2836
78.3100 6698.4830
78.3200 6586.2326
78.3300 6862.7466
78.3400 6556.4546
78.3500 6838.8778
78.3600 6743.0054
78.3700 7014.6762
78.3800 6655.0594
78.3900 7266.8766
78.4000 7051.3388
78.4100 6627.5960
78.4200 6976.2444
78.4300 6743.9444
78.4400 6737.8442
78.4500 6743.4176
78.4600 6799.2412
78.4700 7119.1560
78.4800 6873.1266
78.4900 6739.0076
78.5000 7051.5048
78.5100 7053.6930
78.5200 6935.5582
78.5300 6928.1836
78.5400 6778.3806
78.5500 6970.1700
78.5600 6447.4594
78.5700 6945.5428
78.5800 6506.0124
78.5900 6748.0982
78.6000 6802.6608
78.6100 6792.7592
78.6200 6706.5734
78.6300 6728.7772
78.6400 6930.7618
78.6500 6610.7596
78.6600 6902.8508
78.6700 6749.4556
78.6800 6627.9798
78.6900 7054.9430
78.7000 6903.7720
78.7100 6833.4514
78.7200 6843.2780
78.7300 6853.9176
78.7400 6630.1514
78.7500 6754.3116
78.7600 6643.5640
78.7700 6697.3124
78.7800 6590.8036
78.7900 6694.9480
78.8000 6880.9448
78.8100 6610.0452
78.8200 6720.7964
78.8300 7064.3262
78.8400 6890.5346
78.8500 6724.9826
78.8600 6678.7216
78.8700 6446.9930
78.8800 6579.0882
78.8900 6684.5576
78.9000 6888.0542
78.9100 6645.0960
78.9200 6651.4930
78.9300 6623.3440
78.9400 6635.8874
78.9500 6639.7120
78.9600 6432.4122
78.9700 6457.9696
78.9800 6602.7392
78.9900 6878.7280
79.0000 6529.3360
79.0100 6916.4754
79.0200 6528.1070
79.0300 6918.9420
79.0400 6766.7762
79.0500 6728.9454
79.0600 7083.6980
79.0700 6675.9244
79.0800 6874.7892
79.0900 6585.7116
79.1000 6818.3764
79.1100 6310.7504
79.1200 7024.9594
79.1300 6620.2054
79.1400 6501.9084
79.1500 7050.8106
79.1600 6705.3238
79.1700 6763.8986
79.1800 6563.9368
79.1900 7227.5830
79.2000 6598.7932
79.2100 6555.5566
79.2200 7110.5566
79.2300 6896.7758
79.2400 6604.4426
79.2500 6764.4856
79.2600 6541.6206
79.2700 6633.8264
79.2800 6668.4392
79.2900 6742.3764
79.3000 6634.4568
79.3100 6825.6926
79.3200 6831.8172
79.3300 6684.5638
79.3400 6818.1144
79.3500 6962.5538
79.3600 6419.4572
79.3700 7038.8134
79.3800 6836.2964
79.3900 6697.2510
79.4000 6715.8996
79.4100 6834.6224
79.4200 6806.0188
79.4300 6823.4484
79.4400 6775.1704
79.4500 6510.2210
79.4600 6573.1364
79.4700 6764.3152
79.4800 6921.6602
79.4900 6879.5914
79.5000 7018.3740
79.5100 6841.2906
79.5200 6638.1892
79.5300 6738.6976
79.5400 7051.7268
79.5500 6701.2350
79.5600 6978.4342
79.5700 6930.9156
79.5800 7119.8608
79.5900 6776.0328
79.6000 6835.5966
79.6100 7168.1568
79.6200 7235.7618
79.6300 6757.2294
79.6400 6573.4692
79.6500 6927.0044
79.6600 6730.9834
79.6700 6677.9846
79.6800 6834.3432
79.6900 6724.3054
79.7000 7025.6266
79.7100 6926.9190
79.7200 6457.6140
79.7300 6502.8052
79.7400 6631.6272
79.7500 6893.9722
79.7600 6634.9752
79.7700 7249.7030
79.7800 6814.2228
79.7900 7020.3214
79.8000 6989.6184
79.8100 6829.1692
79.8200 6599.2762
79.8300 7037.2754
79.8400 6775.1144
79.8500 6766.3476
79.8600 6664.2948
79.8700 6860.0162
79.8800 6719.6928
79.8900 6925.0528
79.9000 6911.2728
79.9100 6847.8776
79.9200 6506.6414
79.9300 6543.2898
79.9400 6825.3870
79.9500 6949.2846
79.9600 7101.5730
79.9700 7193.2096
79.9800 6853.7296
79.9900 6647.5208
80.0000 6882.6472
80.0100 6810.5184
80.0200 6775.1236
80.0300 6583.8846
80.0400 6923.0168
80.0500 6763.4826
80.0600 7130.8700
80.0700 6793.2564
80.0800 6742.2750
80.0900 6473.5124
80.1000 6825.3710
80.1100 7003.3666
80.1200 6860.3784
80.1300 6737.1900
80.1400 6884.3164
80.1500 6992.6570
80.1600 6981.1312
80.1700 6896.6342
80.1800 6783.7748
80.1900 6523.9400
80.2000 6783.3186
80.2100 6788.4794
80.2200 6491.6570
80.2300 7013.1316
80.2400 6879.6012
80.2500 6648.9636
80.2600 6679.6928
80.2700 6931.9670
80.2800 6821.6198
80.2900 6837.0508
80.3000 6763.1258
80.3100 6579.3200
80.3200 6732.8748
80.3300 6938.8526
80.3400 6941.9392
80.3500 6701.7460
80.3600 6554.8584
80.3700 6840.1766
80.3800 7037.1166
80.3900 6726.1084
80.4000 6544.7306
80.4100 6704.2032
80.4200 7073.5490
80.4300 7263.7484
80.4400 6799.3884
80.4500 6921.4876
80.4600 7134.4182
80.4700 6830.8390
80.4800 6828.6914
80.4900 6720.1006
80.5000 6822.6298
80.5100 7204.2936
80.5200 7106.6276
80.5300 6749.1056
80.5400 6733.2210
80.5500 6822.2482
80.5600 6949.7208
80.5700 6793.8998
80.5800 6909.5866
80.5900 6540.4850
80.6000 6730.3996
80.6100 6948.2218
80.6200 6945.0976
80.6300 7131.4706
80.6400 6953.5442
80.6500 6674.0710
80.6600 7090.5704
80.6700 6676.6740
80.6800 7208.1584
80.6900 6628.0362
80.7000 6531.8726
80.7100 6891.1052
80.7200 7234.8764
80.7300 6626.5722
80.7400 7165.7756
80.7500 6621.6358
80.7600 6931.4998
80.7700 7287.1126
80.7800 6602.6144
80.7900 6736.1292
80.8000 6982.2990
80.8100 7137.3780
80.8200 6894.2700
80.8300 6715.6938
80.8400 6751.4222
80.8500 6834.1122
80.8600 6748.2198
80.8700 7097.3348
80.8800 7318.6352
80.8900 6767.2042
80.9000 6760.9212
80.9100 6861.8986
80.9200 7197.3202
80.9300 7226.4770
80.9400 7334.7966
80.9500 7002.3632
80.9600 7098.4652
80.9700 7298.3448
80.9800 7174.8380
80.9900 6973.3528
81.0000 7168.7452
81.0100 6963.8012
81.0200 7158.5360
81.0300 7204.1122
81.0400 7242.9240
81.0500 7157.4602
81.0600 7225.6324
81.0700 7471.9450
81.0800 7187.7058
81.0900 7495.3556
81.1000 7381.3012
81.1100 7427.5538
81.1200 7349.2570
81.1300 7561.9410
81.1400 7381.9418
81.1500 7165.9400
81.1600 7301.5902
81.1700 7475.0106
81.1800 7668.3472
81.1900 7436.5942
81.2000 7555.3964
81.2100 7306.4926
81.2200 7282.1420
81.2300 7205.4346
81.2400 7197.3022
81.2500 7758.7614
81.2600 7479.0064
81.2700 7584.2350
81.2800 7607.8532
81.2900 7371.2704
81.3000 7839.4320
81.3100 7800.9708
81.3200 7817.8540
81.3300 7635.2278
81.3400 7588.9672
81.3500 7617.7776
81.3600 7581.1150
81.3700 7398.2666
81.3800 7624.0608
81.3900 7861.1572
81.4000 7767.0386
81.4100 7469.1918
81.4200 8094.7820
81.4300 7766.5088
81.4400 7489.2032
81.4500 7726.3298
81.4600 7954.2082
81.4700 7627.7888
81.4800 7723.0998
81.4900 7924.6566
81.5000 8402.7116
81.5100 8082.3552
81.5200 7821.3648
81.5300 7935.7178
81.5400 7984.4166
81.5500 8177.4968
81.5600 7889.9324
81.5700 7858.8794
81.5800 7979.2188
81.5900 7930.1684
81.6000 7896.0320
81.6100 7613.3496
81.6200 7898.4668
81.6300 7524.6192
81.6400 7816.5438
81.6500 7785.8334
81.6600 7390.8716
81.6700 7845.5590
81.6800 7717.6814
81.6900 7387.8124
81.7000 7405.3296
81.7100 7251.8896
81.7200 7503.8264
81.7300 7274.8608
81.7400 7224.4336
81.7500 7352.6140
81.7600 7434.1496
81.7700 7274.3074
81.7800 7170.7300
81.7900 7107.2266
81.8000 7303.2722
81.8100 7323.6158
81.8200 6962.1566
81.8300 7017.2168
81.8400 7256.9686
81.8500 7190.0740
81.8600 7406.6260
81.8700 7192.4748
81.8800 7106.2532
81.8900 6731.3908
81.9000 6730.9396
81.9100 6784.2986
81.9200 7263.8786
81.9300 6800.1380
81.9400 6590.5152
81.9500 6922.8272
81.9600 6898.9038
81.9700 7153.3440
81.9800 6981.9922
81.9900 6854.5182
82.0000 7105.8570
82.0100 7055.4924
82.0200 6949.2952
82.0300 7116.6512
82.0400 7065.6274
82.0500 6590.6392
82.0600 6992.3266
82.0700 7287.9574
82.0800 7479.2806
82.0900 7221.2248
82.1000 7439.2188
82.1100 7045.7756
82.1200 6958.2300
82.1300 6972.1200
82.1400 7183.2316
82.1500 7229.6004
82.1600 7223.4586
82.1700 6725.0862
82.1800 6795.8784
82.1900 6854.3164
82.2000 7015.4142
82.2100 6927.0826
82.2200 6846.0408
82.2300 7280.4166
82.2400 7225.9366
82.2500 6976.0302
82.2600 7143.0762
82.2700 6799.8890
82.2800 6778.1922
82.2900 6290.2210
82.3000 6555.9004
82.3100 7026.4690
82.3200 6936.2728
82.3300 6962.5538
82.3400 7169.9292
82.3500 6995.2312
82.3600 6702.0426
82.3700 6939.2732
82.3800 6714.0516
82.3900 7064.4002
82.4000 6711.7590
82.4100 6958.6410
82.4200 6767.0944
82.4300 6497.3608
82.4400 7135.1310
82.4500 6791.5502
82.4600 6911.3648
82.4700 6941.5706
82.4800 7226.7164
82.4900 7049.2432
82.5000 6984.4662
82.5100 6896.2850
82.5200 6699.4190
82.5300 7013.3098
82.5400 6913.7370
82.5500 6895.0830
82.5600 6790.8528
82.5700 6994.2212
82.5800 6877.9052
82.5900 7272.0020
82.6000 7327.1126
82.6100 6866.8326
82.6200 7004.3066
82.6300 6983.4594
82.6400 7397.0882
82.6500 6785.4904
82.6600 7002.9060
82.6700 7080.3158
82.6800 6922.8012
82.6900 6842.1158
82.7000 7028.1698
82.7100 6651.4002
82.7200 7016.7766
82.7300 7197.7758
82.7400 6784.0044
82.7500 6689.8502
82.7600 6541.9532
82.7700 6883.3562
82.7800 7032.1542
82.7900 6657.3852
82.8000 6722.2774
82.8100 7047.0752
82.8200 6772.5794
82.8300 6676.2410
82.8400 6544.8112
82.8500 6857.2266
82.8600 6821.9860
82.8700 6939.3530
82.8800 6800.3112
82.8900 7045.7496
82.9000 6842.6342
82.9100 7047.1680
82.9200 6916.0058
82.9300 6861.1500
82.9400 7156.6472
82.9500 6734.2770
82.9600 7307.8100
82.9700 6663.7068
82.9800 6935.4436
82.9900 6894.6102
83.0000 6597.1972
83.0100 6879.0226
83.0200 6908.6092
83.0300 7126.0694
83.0400 6955.1864
83.0500 7169.1106
83.0600 6905.1464
83.0700 6845.5396
83.0800 6981.9166
83.0900 7062.5814
83.1000 6962.3088
83.1100 6790.5000
83.1200 6670.2718
83.1300 6933.8956
83.1400 6804.0808
83.1500 7092.1762
83.1600 6788.1986
83.1700 6945.4598
83.1800 7017.7742
83.1900 7061.5104
83.2000 6979.2692
83.2100 6688.6930
83.2200 6816.6744
83.2300 6784.1122
83.2400 7017.1606
83.2500 6945.5770
83.2600 6952.6456
83.2700 6962.0280
83.2800 6821.5646
83.2900 7097.8874
83.3000 6955.8642
83.3100 6895.2172
83.3200 6932.1704
83.3300 6750.4638
83.3400 6884.7128
83.3500 7002.4438
83.3600 6978.0802
83.3700 6861.5486
83.3800 6989.5248
83.3900 6950.5924
83.4000 6871.5528
83.4100 6754.7688
83.4200 6852.1728
83.4300 6904.2732
83.4400 7024.2164
83.4500 6967.3844
83.4600 7309.8926
83.4700 7036.9524
83.4800 6928.1698
83.4900 6987.3324
83.5000 7358.7280
83.5100 7297.1444
83.5200 6843.4676
83.5300 7099.7102
83.5400 6664.2484
83.5500 6808.0038
83.5600 6864.3782
83.5700 6789.1434
83.5800 7040.8626
83.5900 6875.8854
83.6000 6705.3356
83.6100 7003.9778
83.6200 6633.7752
83.6300 6874.9698
83.6400 6625.7878
83.6500 7103.3390
83.6600 6874.8380
83.6700 6922.3886
83.6800 6927.3730
83.6900 6692.2502
83.7000 6908.5938
83.7100 6773.0114
83.7200 6850.1644
83.7300 6938.5792
83.7400 7048.5564
83.7500 6808.4594
83.7600 6649.5964
83.7700 6773.7236
83.7800 6902.7408
83.7900 6947.1638
83.8000 6652.9170
83.8100 6721.8188
83.8200 6803.2532
83.8300 6872.4162
83.8400 6831.7390
83.8500 6842.1842
83.8600 6661.1080
83.8700 6343.2996
83.8800 6717.5538
83.8900 6899.7868
83.9000 6790.5700
83.9100 6658.8058
83.9200 6672.5188
83.9300 6783.1564
83.9400 6695.0020
83.9500 6717.7978
83.9600 6881.9938
83.9700 6737.5410
83.9800 7043.2178
83.9900 7032.0906
84.0000 6683.7386
84.0100 7167.2030
84.0200 6850.3938
84.0300 6794.1520
84.0400 6551.9848
84.0500 6961.1222
84.0600 7222.8834
84.0700 7075.7390
84.0800 6985.5396
84.0900 7117.2176
84.1000 6645.5672
84.1100 6784.5890
84.1200 6517.8382
84.1300 6929.9422
84.1400 6615.2950
84.1500 6833.9454
84.1600 6711.8152
84.1700 6804.2000
84.1800 6881.2548
84.1900 6882.3194
84.2000 6904.6322
84.2100 7365.9986
84.2200 6994.1072
84.2300 7052.3836
84.2400 6810.3956
84.2500 6978.3194
84.2600 7023.0314
84.2700 6840.5224
84.2800 6663.1400
84.2900 7129.2570
84.3000 6890.2872
84.3100 7081.5634
84.3200 6693.2942
84.3300 6426.2126
84.3400 7161.2198
84.3500 6931.0002
84.3600 6715.0484
84.3700 6804.3680
84.3800 6689.8344
84.3900 6610.7678
84.4000 6648.2478
84.4100 7385.6014
84.4200 7194.3326
84.4300 7184.1634
84.4400 6669.7612
84.4500 6602.9052
84.4600 6512.3958
84.4700 6556.9104
84.4800 6390.1506
84.4900 6696.1136
84.5000 6572.5110
84.5100 6963.1778
84.5200 6947.0842
84.5300 6970.5884
84.5400 6865.9676
84.5500 6902.4764
84.5600 6783.9522
84.5700 6524.1402
84.5800 6903.8778
84.5900 6722.3836
84.6000 7036.5714
84.6100 6860.1090
84.6200 7136.8896
84.6300 7029.3400
84.6400 7050.6266
84.6500 6588.4050
84.6600 7250.1554
84.6700 7248.0696
84.6800 6939.7014
84.6900 6641.2716
84.7000 6883.1014
84.7100 6957.9110
84.7200 6978.8468
84.7300 6639.8714
84.7400 6614.9948
84.7500 6864.1334
84.7600 7043.8476
84.7700 6920.0252
84.7800 6757.9532
84.7900 6719.4860
84.8000 6818.7174
84.8100 6769.0226
84.8200 7208.0314
84.8300 7007.4016
84.8400 7123.9306
84.8500 7018.9680
84.8600 7473.5522
84.8700 7066.6284
84.8800 6951.9978
84.8900 6724.5772
84.9000 7058.2894
84.9100 6675.6088
84.9200 7124.2098
84.9300 7107.6302
84.9400 6923.8256
84.9500 7035.0724
84.9600 6864.2268
84.9700 6664.3466
84.9800 6815.6430
84.9900 6737.6924
85.0000 6942.9980
85.0100 6969.9602
85.0200 6988.2446
85.0300 6834.8226
85.0400 7078.9690
85.0500 6634.0284
85.0600 6927.9118
85.0700 7009.5004
85.0800 6793.2364
85.0900 7069.4254
85.1000 7399.2294
85.1100 7128.5050
85.1200 6670.9860
85.1300 6648.6596
85.1400 7120.4948
85.1500 6901.7244
85.1600 6670.4314
85.1700 7111.5356
85.1800 6861.4420
85.1900 7075.8236
85.2000 7035.9864
85.2100 6915.4346
85.2200 6904.1220
85.2300 7080.2954
85.2400 7085.0456
85.2500 7002.4300
85.2600 6824.8088
85.2700 7154.5524
85.2800 6798.0920
85.2900 6728.3264
85.3000 7129.3098
85.3100 7050.1464
85.3200 7007.6498
85.3300 7161.3038
85.3400 7337.6026
85.3500 7493.1144
85.3600 7262.2200
85.3700 7341.5120
85.3800 7148.0510
85.3900 7375.5062
85.4000 7400.6714
85.4100 7304.3782
85.4200 6854.6028
85.4300 7135.5086
85.4400 7351.2516
85.4500 7359.0104
85.4600 7211.2150
85.4700 7535.7552
85.4800 7331.3038
85.4900 7481.4404
85.5000 7113.5270
85.5100 7384.9348
85.5200 7469.4678
85.5300 7208.6816
85.5400 7515.6184
85.5500 7123.4326
85.5600 7633.4066
85.5700 7743.2942
85.5800 7468.9396
85.5900 7506.2680
85.6000 7491.7586
85.6100 7486.7138
85.6200 7918.6280
85.6300 8410.1538
85.6400 7903.3544
85.6500 7845.1766
85.6600 7706.3624
85.6700 8061.4786
85.6800 8140.0748
85.6900 8148.8314
85.7000 8218.9266
85.7100 7870.6698
85.7200 8520.7088
85.7300 8560.0472
85.7400 8030.0602
85.7500 7829.9804
85.7600 7991.0774
85.7700 7963.7272
85.7800 8678.7296
85.7900 8008.3578
85.8000 8650.7072
85.8100 8797.3160
85.8200 8223.5246
85.8300 8247.3168
85.8400 8583.3318
85.8500 8250.7902
85.8600 8520.1164
85.8700 8905.8790
85.8800 8668.3358
85.8900 8931.9320
85.9000 8784.7802
85.9100 9079.5582
85.9200 8759.4514
85.9300 8723.5132
85.9400 8597.1500
85.9500 8747.8272
85.9600 8684.3896
85.9700 8805.4916
85.9800 8661.8498
85.9900 8565.9286
86.0000 8377.2014
86.0100 8422.6188
86.0200 8530.2776
86.0300 8780.3588
86.0400 8176.5292
86.0500 8691.0214
86.0600 8468.1788
86.0700 8244.0144
86.0800 8229.8250
86.0900 8151.4592
86.1000 8294.2286
86.1100 8180.1286
86.1200 8260.7454
86.1300 7942.9672
86.1400 7819.1098
86.1500 7528.2048
86.1600 7782.0784
86.1700 7928.5270
86.1800 7761.0514
86.1900 7565.3198
86.2000 8060.0284
86.2100 8045.5014
86.2200 7585.7382
86.2300 7876.9304
86.2400 7775.4842
86.2500 7462.2966
86.2600 7511.8082
86.2700 8009.9496
86.2800 7602.5056
86.2900 7484.7258
86.3000 7687.9492
86.3100 7426.5748
86.3200 7132.2176
86.3300 7219.1748
86.3400 7903.2088
86.3500 7230.4760
86.3600 7208.8070
86.3700 7236.0002
86.3800 7285.2076
86.3900 7252.9070
86.4000 7148.8118
86.4100 7288.6084
86.4200 7587.1314
86.4300 7089.0738
86.4400 7026.0018
86.4500 7415.3362
86.4600 7472.8214
86.4700 7432.2892
86.4800 7259.4410
86.4900 6960.8562
86.5000 6893.1136
86.5100 6924.3562
86.5200 7179.0502
86.5300 6890.9994
86.5400 6920.3622
86.5500 6925.0936
86.5600 6753.5828
86.5700 6509.5016
86.5800 6761.5792
86.5900 7225.6682
86.6000 6819.9906
86.6100 6826.8360
86.6200 6720.7748
86.6300 6983.2014
86.6400 7055.0252
86.6500 6792.8264
86.6600 6930.4410
86.6700 7297.0524
86.6800 7073.4830
86.6900 6822.1956
86.7000 6853.1884
86.7100 6811.5384
86.7200 6721.8294
86.7300 6991.5170
86.7400 6682.1948
86.7500 6936.8010
86.7600 7002.3014
86.7700 6674.0764
86.7800 7076.6080
86.7900 7061.2566
86.8000 7322.7474
86.8100 6814.5926
86.8200 6811.4388
86.8300 6705.6120
86.8400 6824.4396
86.8500 6774.0410
86.8600 6970.1400
86.8700 6879.6964
86.8800 6752.6944
86.8900 6928.1210
86.9000 6833.9160
86.9100 6718.7304
86.9200 6483.0986
86.9300 6766.5210
86.9400 6789.3082
86.9500 6899.4384
86.9600 6948.7850
86.9700 6846.8766
86.9800 6839.9340
86.9900 7202.4976
87.0000 7184.3424
87.0100 6599.0726
87.0200 7076.4576
87.0300 6727.4800
87.0400 6497.6908
87.0500 7089.0642
87.0600 6731.7382
87.0700 6925.8008
87.0800 6764.4406
87.0900 6978.8012
87.1000 6954.3554
87.1100 6699.2046
87.1200 7017.7270
87.1300 6620.7584
87.1400 6674.1708
87.1500 6959.8136
87.1600 6624.1260
87.1700 7060.3874
87.1800 6903.3032
87.1900 6707.2486
87.2000 7231.2704
87.2100 7170.9822
87.2200 6671.4270
87.2300 6931.9132
87.2400 7027.2192
87.2500 7145.2652
87.2600 7186.1736
87.2700 6921.0466
87.2800 6953.2878
87.2900 6895.0512
87.3000 6827.0948
87.3100 7057.4374
87.3200 6933.0566
87.3300 7087.2396
87.3400 6919.5800
87.3500 7009.2496
87.3600 6423.0790
87.3700 6469.4560
87.3800 6842.9086
87.3900 6707.6054
87.4000 7067.7766
87.4100 6919.7348
87.4200 7207.5390
87.4300 7141.1158
87.4400 7166.0352
87.4500 7092.5952
87.4600 6831.3346
87.4700 6653.4510
87.4800 6727.7316
87.4900 6658.8362
87.5000 6902.0450
87.5100 6901.9328
87.5200 6769.1590
87.5300 6849.2374
87.5400 6983.1674
87.5500 6846.6472
87.5600 6807.4792
87.5700 6959.1236
87.5800 6994.6826
87.5900 6568.3496
87.6000 6676.6728
87.6100 6945.0090
87.6200 7004.0886
87.6300 6777.8264
87.6400 7417.8500
87.6500 7154.1122
87.6600 6871.9678
87.6700 6699.1642
87.6800 6670.3410
87.6900 6678.3870
87.7000 6767.8556
87.7100 6503.4848
87.7200 6723.1316
87.7300 6704.6394
87.7400 6818.6744
87.7500 6834.5850
87.7600 6609.6036
87.7700 7123.0118
87.7800 7334.5044
87.7900 6777.4764
87.8000 6546.8534
87.8100 6998.7638
87.8200 6896.9238
87.8300 6591.5532
87.8400 6321.9860
87.8500 6610.9774
87.8600 7054.3766
87.8700 6645.1192
87.8800 6757.1016
87.8900 7153.4244
87.9000 6729.8234
87.9100 6825.1940
87.9200 6977.2420
87.9300 6781.9540
87.9400 6966.5870
87.9500 7045.1604
87.9600 6858.4432
87.9700 6568.2250
87.9800 6866.0352
87.9900 6663.2808
88.0000 6973.8566
88.0100 7037.5154
88.0200 7053.2390
88.0300 6776.2956
88.0400 6870.4314
88.0500 6654.7546
88.0600 6693.5160
88.0700 7027.8434
88.0800 7112.8686
88.0900 7047.9712
88.1000 7029.7730
88.1100 6751.5486
88.1200 6846.8196
88.1300 6696.8742
88.1400 7098.4798
88.1500 6853.5580
88.1600 6907.1322
88.1700 7106.1458
88.1800 6606.0392
88.1900 6767.0926
88.2000 6980.8122
88.2100 6718.1466
88.2200 7189.6988
88.2300 7004.6322
88.2400 6741.7736
88.2500 6812.6704
88.2600 6903.1046
88.2700 7076.6642
88.2800 6858.4782
88.2900 6888.2714
88.3000 6836.7424
88.3100 6700.4204
88.3200 6681.5596
88.3300 6961.6976
88.3400 6705.8512
88.3500 6798.1482
88.3600 6504.9800
88.3700 6890.5868
88.3800 6931.8758
88.3900 6770.9180
88.4000 7026.5096
88.4100 6998.9314
88.4200 7073.6524
88.4300 7012.1354
88.4400 7000.5160
88.4500 7105.0098
88.4600 6829.2302
88.4700 6915.5826
88.4800 6614.3794
88.4900 7122.3990
88.5000 7001.8790
88.5100 6919.8396
88.5200 6596.3640
88.5300 6816.5064
88.5400 6914.4784
88.5500 6986.2906
88.5600 6710.6526
88.5700 6750.2758
88.5800 7104.3286
88.5900 7009.4620
88.6000 7044.3872
88.6100 6839.3758
88.6200 7365.8040
88.6300 6954.6362
88.6400 6715.7512
88.6500 7317.6026
88.6600 7034.1016
88.6700 7207.4602
88.6800 6961.5674
88.6900 7085.0406
88.7000 6994.9138
88.7100 7001.9474
88.7200 7061.2532
88.7300 7112.9150
88.7400 7109.2268
88.7500 6854.7550
88.7600 6774.3770
88.7700 6838.1404
88.7800 7253.6336
88.7900 6966.1760
88.8000 7093.1990
88.8100 6872.2868
88.8200 6627.6232
88.8300 6702.7738
88.8400 7070.4638
88.8500 6813.1808
88.8600 6702.3714
88.8700 6599.1658
88.8800 6726.0762
88.8900 6741.8144
88.9000 6638.7626
88.9100 6983.0388
88.9200 7148.3594
88.9300 6923.9290
88.9400 7001.9442
88.9500 7332.5090
88.9600 7144.3050
88.9700 6847.9296
88.9800 6862.4902
88.9900 6847.4910
89.0000 7217.9256
89.0100 7105.7552
89.0200 7076.3004
89.0300 6779.1008
89.0400 7057.9394
89.0500 6817.2758
89.0600 7189.1390
89.0700 6825.3850
89.0800 6836.9532
89.0900 6868.6410
89.1000 6974.3124
89.1100 6751.1630
89.1200 6846.7960
89.1300 7056.7342
89.1400 6923.9364
89.1500 6972.5878
89.1600 6714.2794
89.1700 6865.8398
89.1800 7036.8172
89.1900 6418.5428
89.2000 6871.1410
89.2100 6805.7976
89.2200 6639.1914
89.2300 6998.5084
89.2400 7110.2726
89.2500 7023.1656
89.2600 6848.5506
89.2700 6604.6362
89.2800 6976.7408
89.2900 6968.2496
89.3000 6653.2238
89.3100 6853.7288
89.3200 6958.3064
89.3300 6842.9020
89.3400 7144.5686
89.3500 6804.4532
89.3600 6688.3004
89.3700 6449.8018
89.3800 6714.4186
89.3900 7113.4326
89.4000 7002.4830
89.4100 7244.9658
89.4200 7193.3520
89.4300 6948.5824
89.4400 6919.4312
89.4500 7041.5764
89.4600 6888.9298
89.4700 7014.0748
89.4800 6866.8034
89.4900 6742.2680
89.5000 6688.1552
89.5100 6686.0690
89.5200 6931.2532
89.5300 6711.6688
89.5400 7420.6648
89.5500 7172.5944
89.5600 7112.1842
89.5700 6671.4238
89.5800 6569.2032
89.5900 7143.5092
89.6000 7081.8424
89.6100 7042.2802
89.6200 6979.7762
89.6300 6626.6300
89.6400 7066.9808
89.6500 7114.6028
89.6600 6911.3452
89.6700 7019.8836
89.6800 6942.3332
89.6900 6762.7568
89.7000 7168.8134
89.7100 6884.6712
89.7200 6794.7128
89.7300 6548.4074
89.7400 6838.0476
89.7500 7118.5914
89.7600 7117.4650
89.7700 7198.3822
89.7800 6775.0960
89.7900 6866.8466
89.8000 7057.9638
89.8100 7005.2294
89.8200 6743.6438
89.8300 6821.0534
89.8400 6973.6946
89.8500 7038.4578
89.8600 6684.6188
89.8700 7068.4358
89.8800 6948.6076
89.8900 7085.9986
89.9000 7173.1478
89.9100 6965.3548
89.9200 6751.7236
89.9300 7013.1876
89.9400 6856.4226
89.9500 6855.1578
89.9600 6909.7470
89.9700 7178.1372
89.9800 6873.1380
89.9900 7354.7022
90.0000 6890.4264
