         ID: 

    Comment: 

Scan Type: Normal
Start Angle: 15 deg.
Stop Angle: 90 deg.
Num Points: 3751
Step Size: 0.02 deg.
Datafile Res: 1600 
Scan Rate: 1.000000
Scan Mode: Continuous
Wavelength: 1.540562

Diffractometer Optics:
		Detector:
			 Type: Fixed Slits
			 X2 Configuration: No
		Tube: 
			 Type: Fixed Slits
			 X2 Configuration: No


Axis[0]
	 Selected   : no 
	 Iterative  : no 
	 Start Angle: 0.000000 
	 Stop Angle : 0.000000 
	 Step Size  : 0.000000 
	 Oscillating: no 

Axis[1]
	 Selected   : no 
	 Iterative  : no 
	 Start Angle: 0.000000 
	 Stop Angle : 0.000000 
	 Step Size  : 0.000000 
	 Oscillating: no 

Axis[2]
	 Selected   : no 
	 Iterative  : no 
	 Start Angle: 0.000000 
	 Stop Angle : 0.000000 
	 Step Size  : 0.000000 
	 Oscillating: no 

Axis[3]
	 Selected   : no 
	 Iterative  : no 
	 Start Angle: 0.000000 
	 Stop Angle : 0.000000 
	 Step Size  : 0.000000 
	 Oscillating: no 

Axis[4]
	 Selected   : no 
	 Iterative  : no 
	 Start Angle: 0.000000 
	 Stop Angle : 0.000000 
	 Step Size  : 0.000000 
	 Oscillating: no 

Axis[5]
	 Selected   : no 
	 Iterative  : no 
	 Start Angle: 0.000000 
	 Stop Angle : 0.000000 
	 Step Size  : 0.000000 
	 Oscillating: no 

Axis[6]
	 Selected   : no 
	 Iterative  : no 
	 Start Angle: 0.000000 
	 Stop Angle : 0.000000 
	 Step Size  : 0.000000 
	 Oscillating: no 

Axis[7]
	 Selected   : no 
	 Iterative  : no 
	 Start Angle: 0.000000 
	 Stop Angle : 0.000000 
	 Step Size  : 0.000000 
	 Oscillating: no 

Axis[8]
	 Selected   : no 
	 Iterative  : no 
	 Start Angle: 0.000000 
	 Stop Angle : 0.000000 
	 Step Size  : 0.000000 
	 Oscillating: no 

Axis[9]
	 Selected   : no 
	 Iterative  : no 
	 Start Angle: 0.000000 
	 Stop Angle : 0.000000 
	 Step Size  : 0.000000 
	 Oscillating: no 




	   Deg.    Counts 	   Time 	    ESD   

Range 0
  15.000	        97	    1200	     9.849
  15.020	        84	    1200	     9.165
  15.040	        89	    1200	     9.434
  15.060	        94	    1200	     9.695
  15.080	        94	    1200	     9.695
  15.100	       103	    1200	    10.149
  15.120	        96	    1200	     9.798
  15.140	       109	    1200	    10.440
  15.160	       102	    1200	    10.100
  15.180	       102	    1200	    10.100
  15.200	        99	    1200	     9.950
  15.220	        94	    1200	     9.695
  15.240	        97	    1200	     9.849
  15.260	        90	    1200	     9.487
  15.280	        91	    1200	     9.539
  15.300	        96	    1200	     9.798
  15.320	       100	    1200	    10.000
  15.340	       113	    1200	    10.630
  15.360	        92	    1200	     9.592
  15.380	        93	    1200	     9.644
  15.400	        98	    1200	     9.899
  15.420	        96	    1200	     9.798
  15.440	       102	    1200	    10.100
  15.460	        94	    1200	     9.695
  15.480	       117	    1200	    10.817
  15.500	       102	    1200	    10.100
  15.520	        84	    1200	     9.165
  15.540	        92	    1200	     9.592
  15.560	        89	    1200	     9.434
  15.580	       105	    1200	    10.247
  15.600	        89	    1200	     9.434
  15.620	        88	    1200	     9.381
  15.640	       112	    1200	    10.583
  15.660	        75	    1200	     8.660
  15.680	        93	    1200	     9.644
  15.700	       107	    1200	    10.344
  15.720	        86	    1200	     9.274
  15.740	        94	    1200	     9.695
  15.760	        93	    1200	     9.644
  15.780	       121	    1200	    11.000
  15.800	       120	    1200	    10.954
  15.820	       102	    1200	    10.100
  15.840	       112	    1200	    10.583
  15.860	        91	    1200	     9.539
  15.880	        91	    1200	     9.539
  15.900	        87	    1200	     9.327
  15.920	        76	    1200	     8.718
  15.940	        78	    1200	     8.832
  15.960	       105	    1200	    10.247
  15.980	        76	    1200	     8.718
  16.000	       104	    1200	    10.198
  16.020	       101	    1200	    10.050
  16.040	       100	    1200	    10.000
  16.060	        87	    1200	     9.327
  16.080	        97	    1200	     9.849
  16.100	       104	    1200	    10.198
  16.120	       103	    1200	    10.149
  16.140	       106	    1200	    10.296
  16.160	       100	    1200	    10.000
  16.180	       114	    1200	    10.677
  16.200	        98	    1200	     9.899
  16.220	        74	    1200	     8.602
  16.240	        98	    1200	     9.899
  16.260	        95	    1200	     9.747
  16.280	       109	    1200	    10.440
  16.300	        99	    1200	     9.950
  16.320	       102	    1200	    10.100
  16.340	        91	    1200	     9.539
  16.360	        96	    1200	     9.798
  16.380	        97	    1200	     9.849
  16.400	        98	    1200	     9.899
  16.420	        89	    1200	     9.434
  16.440	        93	    1200	     9.644
  16.460	        94	    1200	     9.695
  16.480	       110	    1200	    10.488
  16.500	        90	    1200	     9.487
  16.520	       103	    1200	    10.149
  16.540	        93	    1200	     9.644
  16.560	        95	    1200	     9.747
  16.580	        93	    1200	     9.644
  16.600	       113	    1200	    10.630
  16.620	       102	    1200	    10.100
  16.640	        85	    1200	     9.220
  16.660	       108	    1200	    10.392
  16.680	        94	    1200	     9.695
  16.700	        94	    1200	     9.695
  16.720	        99	    1200	     9.950
  16.740	       102	    1200	    10.100
  16.760	       104	    1200	    10.198
  16.780	        92	    1200	     9.592
  16.800	        84	    1200	     9.165
  16.820	        96	    1200	     9.798
  16.840	        93	    1200	     9.644
  16.860	        89	    1200	     9.434
  16.880	        89	    1200	     9.434
  16.900	        98	    1200	     9.899
  16.920	        92	    1200	     9.592
  16.940	       105	    1200	    10.247
  16.960	        98	    1200	     9.899
  16.980	       102	    1200	    10.100
  17.000	        88	    1200	     9.381
  17.020	       101	    1200	    10.050
  17.040	       124	    1200	    11.136
  17.060	        85	    1200	     9.220
  17.080	        87	    1200	     9.327
  17.100	       101	    1200	    10.050
  17.120	        87	    1200	     9.327
  17.140	        77	    1200	     8.775
  17.160	       102	    1200	    10.100
  17.180	        86	    1200	     9.274
  17.200	        95	    1200	     9.747
  17.220	        88	    1200	     9.381
  17.240	        93	    1200	     9.644
  17.260	        77	    1200	     8.775
  17.280	       104	    1200	    10.198
  17.300	        82	    1200	     9.055
  17.320	        84	    1200	     9.165
  17.340	        91	    1200	     9.539
  17.360	        96	    1200	     9.798
  17.380	        85	    1200	     9.220
  17.400	       102	    1200	    10.100
  17.420	        85	    1200	     9.220
  17.440	       109	    1200	    10.440
  17.460	       103	    1200	    10.149
  17.480	        83	    1200	     9.110
  17.500	       114	    1200	    10.677
  17.520	        87	    1200	     9.327
  17.540	        86	    1200	     9.274
  17.560	        84	    1200	     9.165
  17.580	       108	    1200	    10.392
  17.600	       113	    1200	    10.630
  17.620	        93	    1200	     9.644
  17.640	       100	    1200	    10.000
  17.660	       114	    1200	    10.677
  17.680	       102	    1200	    10.100
  17.700	       108	    1200	    10.392
  17.720	       100	    1200	    10.000
  17.740	        97	    1200	     9.849
  17.760	        78	    1200	     8.832
  17.780	        98	    1200	     9.899
  17.800	        92	    1200	     9.592
  17.820	       106	    1200	    10.296
  17.840	        81	    1200	     9.000
  17.860	       117	    1200	    10.817
  17.880	        96	    1200	     9.798
  17.900	        85	    1200	     9.220
  17.920	       110	    1200	    10.488
  17.940	        97	    1200	     9.849
  17.960	        89	    1200	     9.434
  17.980	       112	    1200	    10.583
  18.000	       100	    1200	    10.000
  18.020	       106	    1200	    10.296
  18.040	        87	    1200	     9.327
  18.060	       102	    1200	    10.100
  18.080	        89	    1200	     9.434
  18.100	        90	    1200	     9.487
  18.120	        94	    1200	     9.695
  18.140	        87	    1200	     9.327
  18.160	       103	    1200	    10.149
  18.180	       100	    1200	    10.000
  18.200	        91	    1200	     9.539
  18.220	       104	    1200	    10.198
  18.240	        91	    1200	     9.539
  18.260	        96	    1200	     9.798
  18.280	       106	    1200	    10.296
  18.300	       112	    1200	    10.583
  18.320	       113	    1200	    10.630
  18.340	        85	    1200	     9.220
  18.360	       100	    1200	    10.000
  18.380	       103	    1200	    10.149
  18.400	       101	    1200	    10.050
  18.420	       104	    1200	    10.198
  18.440	       101	    1200	    10.050
  18.460	        84	    1200	     9.165
  18.480	       109	    1200	    10.440
  18.500	        89	    1200	     9.434
  18.520	        92	    1200	     9.592
  18.540	       111	    1200	    10.536
  18.560	       106	    1200	    10.296
  18.580	       101	    1200	    10.050
  18.600	        99	    1200	     9.950
  18.620	       101	    1200	    10.050
  18.640	       107	    1200	    10.344
  18.660	        86	    1200	     9.274
  18.680	        98	    1200	     9.899
  18.700	       110	    1200	    10.488
  18.720	        96	    1200	     9.798
  18.740	        98	    1200	     9.899
  18.760	        97	    1200	     9.849
  18.780	       100	    1200	    10.000
  18.800	       105	    1200	    10.247
  18.820	        94	    1200	     9.695
  18.840	       102	    1200	    10.100
  18.860	        92	    1200	     9.592
  18.880	        91	    1200	     9.539
  18.900	        98	    1200	     9.899
  18.920	        98	    1200	     9.899
  18.940	       112	    1200	    10.583
  18.960	       103	    1200	    10.149
  18.980	        82	    1200	     9.055
  19.000	       132	    1200	    11.489
  19.020	        82	    1200	     9.055
  19.040	        78	    1200	     8.832
  19.060	        91	    1200	     9.539
  19.080	       106	    1200	    10.296
  19.100	        86	    1200	     9.274
  19.120	       105	    1200	    10.247
  19.140	       111	    1200	    10.536
  19.160	       101	    1200	    10.050
  19.180	       101	    1200	    10.050
  19.200	       105	    1200	    10.247
  19.220	        84	    1200	     9.165
  19.240	        99	    1200	     9.950
  19.260	       104	    1200	    10.198
  19.280	       112	    1200	    10.583
  19.300	       107	    1200	    10.344
  19.320	       103	    1200	    10.149
  19.340	        92	    1200	     9.592
  19.360	        93	    1200	     9.644
  19.380	        83	    1200	     9.110
  19.400	       109	    1200	    10.440
  19.420	        95	    1200	     9.747
  19.440	       110	    1200	    10.488
  19.460	       107	    1200	    10.344
  19.480	        85	    1200	     9.220
  19.500	        88	    1200	     9.381
  19.520	       105	    1200	    10.247
  19.540	       107	    1200	    10.344
  19.560	        93	    1200	     9.644
  19.580	       103	    1200	    10.149
  19.600	       110	    1200	    10.488
  19.620	       102	    1200	    10.100
  19.640	       109	    1200	    10.440
  19.660	        97	    1200	     9.849
  19.680	       111	    1200	    10.536
  19.700	       108	    1200	    10.392
  19.720	        74	    1200	     8.602
  19.740	       108	    1200	    10.392
  19.760	        96	    1200	     9.798
  19.780	        93	    1200	     9.644
  19.800	        93	    1200	     9.644
  19.820	       103	    1200	    10.149
  19.840	       101	    1200	    10.050
  19.860	       107	    1200	    10.344
  19.880	        89	    1200	     9.434
  19.900	       117	    1200	    10.817
  19.920	       105	    1200	    10.247
  19.940	       114	    1200	    10.677
  19.960	        83	    1200	     9.110
  19.980	       117	    1200	    10.817
  20.000	        99	    1200	     9.950
  20.020	       106	    1200	    10.296
  20.040	        90	    1200	     9.487
  20.060	       101	    1200	    10.050
  20.080	        96	    1200	     9.798
  20.100	       121	    1200	    11.000
  20.120	       102	    1200	    10.100
  20.140	        95	    1200	     9.747
  20.160	       118	    1200	    10.863
  20.180	        96	    1200	     9.798
  20.200	        91	    1200	     9.539
  20.220	       109	    1200	    10.440
  20.240	       103	    1200	    10.149
  20.260	       111	    1200	    10.536
  20.280	       100	    1200	    10.000
  20.300	        81	    1200	     9.000
  20.320	        91	    1200	     9.539
  20.340	       104	    1200	    10.198
  20.360	       101	    1200	    10.050
  20.380	        91	    1200	     9.539
  20.400	        92	    1200	     9.592
  20.420	        96	    1200	     9.798
  20.440	       125	    1200	    11.180
  20.460	        96	    1200	     9.798
  20.480	       109	    1200	    10.440
  20.500	        94	    1200	     9.695
  20.520	        82	    1200	     9.055
  20.540	        89	    1200	     9.434
  20.560	       115	    1200	    10.724
  20.580	       105	    1200	    10.247
  20.600	       111	    1200	    10.536
  20.620	        94	    1200	     9.695
  20.640	       109	    1200	    10.440
  20.660	        98	    1200	     9.899
  20.680	       100	    1200	    10.000
  20.700	        94	    1200	     9.695
  20.720	       104	    1200	    10.198
  20.740	       101	    1200	    10.050
  20.760	       112	    1200	    10.583
  20.780	       100	    1200	    10.000
  20.800	       103	    1200	    10.149
  20.820	       105	    1200	    10.247
  20.840	       109	    1200	    10.440
  20.860	       110	    1200	    10.488
  20.880	       111	    1200	    10.536
  20.900	        90	    1200	     9.487
  20.920	       104	    1200	    10.198
  20.940	       103	    1200	    10.149
  20.960	       110	    1200	    10.488
  20.980	       100	    1200	    10.000
  21.000	       104	    1200	    10.198
  21.020	       112	    1200	    10.583
  21.040	        99	    1200	     9.950
  21.060	        92	    1200	     9.592
  21.080	       108	    1200	    10.392
  21.100	        90	    1200	     9.487
  21.120	        92	    1200	     9.592
  21.140	       111	    1200	    10.536
  21.160	       106	    1200	    10.296
  21.180	       103	    1200	    10.149
  21.200	        92	    1200	     9.592
  21.220	        84	    1200	     9.165
  21.240	        86	    1200	     9.274
  21.260	       118	    1200	    10.863
  21.280	       105	    1200	    10.247
  21.300	        89	    1200	     9.434
  21.320	       106	    1200	    10.296
  21.340	       102	    1200	    10.100
  21.360	        97	    1200	     9.849
  21.380	       115	    1200	    10.724
  21.400	       121	    1200	    11.000
  21.420	        94	    1200	     9.695
  21.440	        90	    1200	     9.487
  21.460	       112	    1200	    10.583
  21.480	       100	    1200	    10.000
  21.500	       106	    1200	    10.296
  21.520	        99	    1200	     9.950
  21.540	        95	    1200	     9.747
  21.560	       111	    1200	    10.536
  21.580	       123	    1200	    11.091
  21.600	       112	    1200	    10.583
  21.620	       116	    1200	    10.770
  21.640	       103	    1200	    10.149
  21.660	       119	    1200	    10.909
  21.680	        91	    1200	     9.539
  21.700	       100	    1200	    10.000
  21.720	       106	    1200	    10.296
  21.740	       118	    1200	    10.863
  21.760	        89	    1200	     9.434
  21.780	       110	    1200	    10.488
  21.800	       109	    1200	    10.440
  21.820	       131	    1200	    11.446
  21.840	       116	    1200	    10.770
  21.860	       132	    1200	    11.489
  21.880	       118	    1200	    10.863
  21.900	       117	    1200	    10.817
  21.920	       117	    1200	    10.817
  21.940	        90	    1200	     9.487
  21.960	        98	    1200	     9.899
  21.980	       101	    1200	    10.050
  22.000	       111	    1200	    10.536
  22.020	       104	    1200	    10.198
  22.040	       100	    1200	    10.000
  22.060	       122	    1200	    11.045
  22.080	       105	    1200	    10.247
  22.100	       116	    1200	    10.770
  22.120	       107	    1200	    10.344
  22.140	       106	    1200	    10.296
  22.160	       118	    1200	    10.863
  22.180	       100	    1200	    10.000
  22.200	       103	    1200	    10.149
  22.220	       125	    1200	    11.180
  22.240	       113	    1200	    10.630
  22.260	       118	    1200	    10.863
  22.280	        98	    1200	     9.899
  22.300	       104	    1200	    10.198
  22.320	       114	    1200	    10.677
  22.340	       110	    1200	    10.488
  22.360	       103	    1200	    10.149
  22.380	        93	    1200	     9.644
  22.400	        90	    1200	     9.487
  22.420	       109	    1200	    10.440
  22.440	       102	    1200	    10.100
  22.460	       101	    1200	    10.050
  22.480	       104	    1200	    10.198
  22.500	       113	    1200	    10.630
  22.520	       117	    1200	    10.817
  22.540	       126	    1200	    11.225
  22.560	       113	    1200	    10.630
  22.580	       122	    1200	    11.045
  22.600	       112	    1200	    10.583
  22.620	       127	    1200	    11.269
  22.640	       126	    1200	    11.225
  22.660	       109	    1200	    10.440
  22.680	       131	    1200	    11.446
  22.700	       125	    1200	    11.180
  22.720	       107	    1200	    10.344
  22.740	       126	    1200	    11.225
  22.760	       111	    1200	    10.536
  22.780	       113	    1200	    10.630
  22.800	       119	    1200	    10.909
  22.820	       137	    1200	    11.705
  22.840	       124	    1200	    11.136
  22.860	       124	    1200	    11.136
  22.880	       131	    1200	    11.446
  22.900	       135	    1200	    11.619
  22.920	       134	    1200	    11.576
  22.940	       107	    1200	    10.344
  22.960	       138	    1200	    11.747
  22.980	       113	    1200	    10.630
  23.000	       117	    1200	    10.817
  23.020	       118	    1200	    10.863
  23.040	       122	    1200	    11.045
  23.060	       125	    1200	    11.180
  23.080	       121	    1200	    11.000
  23.100	       109	    1200	    10.440
  23.120	       122	    1200	    11.045
  23.140	       132	    1200	    11.489
  23.160	       129	    1200	    11.358
  23.180	       110	    1200	    10.488
  23.200	       100	    1200	    10.000
  23.220	       113	    1200	    10.630
  23.240	       103	    1200	    10.149
  23.260	       101	    1200	    10.050
  23.280	       109	    1200	    10.440
  23.300	       109	    1200	    10.440
  23.320	       108	    1200	    10.392
  23.340	        99	    1200	     9.950
  23.360	       111	    1200	    10.536
  23.380	        94	    1200	     9.695
  23.400	       114	    1200	    10.677
  23.420	       103	    1200	    10.149
  23.440	       110	    1200	    10.488
  23.460	       112	    1200	    10.583
  23.480	       131	    1200	    11.446
  23.500	       102	    1200	    10.100
  23.520	        85	    1200	     9.220
  23.540	       100	    1200	    10.000
  23.560	       106	    1200	    10.296
  23.580	       144	    1200	    12.000
  23.600	       103	    1200	    10.149
  23.620	       104	    1200	    10.198
  23.640	       102	    1200	    10.100
  23.660	        98	    1200	     9.899
  23.680	       105	    1200	    10.247
  23.700	        95	    1200	     9.747
  23.720	       120	    1200	    10.954
  23.740	        99	    1200	     9.950
  23.760	        92	    1200	     9.592
  23.780	       125	    1200	    11.180
  23.800	       108	    1200	    10.392
  23.820	        90	    1200	     9.487
  23.840	        97	    1200	     9.849
  23.860	        80	    1200	     8.944
  23.880	       115	    1200	    10.724
  23.900	       101	    1200	    10.050
  23.920	       106	    1200	    10.296
  23.940	        97	    1200	     9.849
  23.960	       101	    1200	    10.050
  23.980	        99	    1200	     9.950
  24.000	        85	    1200	     9.220
  24.020	       112	    1200	    10.583
  24.040	        83	    1200	     9.110
  24.060	       100	    1200	    10.000
  24.080	        94	    1200	     9.695
  24.100	        97	    1200	     9.849
  24.120	        97	    1200	     9.849
  24.140	        95	    1200	     9.747
  24.160	        88	    1200	     9.381
  24.180	       110	    1200	    10.488
  24.200	        90	    1200	     9.487
  24.220	        88	    1200	     9.381
  24.240	        90	    1200	     9.487
  24.260	       107	    1200	    10.344
  24.280	       100	    1200	    10.000
  24.300	        97	    1200	     9.849
  24.320	       105	    1200	    10.247
  24.340	        87	    1200	     9.327
  24.360	        96	    1200	     9.798
  24.380	        85	    1200	     9.220
  24.400	       100	    1200	    10.000
  24.420	       119	    1200	    10.909
  24.440	       107	    1200	    10.344
  24.460	        95	    1200	     9.747
  24.480	        98	    1200	     9.899
  24.500	        98	    1200	     9.899
  24.520	        96	    1200	     9.798
  24.540	       108	    1200	    10.392
  24.560	       103	    1200	    10.149
  24.580	       101	    1200	    10.050
  24.600	       116	    1200	    10.770
  24.620	        93	    1200	     9.644
  24.640	        89	    1200	     9.434
  24.660	       109	    1200	    10.440
  24.680	        89	    1200	     9.434
  24.700	        97	    1200	     9.849
  24.720	        92	    1200	     9.592
  24.740	        95	    1200	     9.747
  24.760	        85	    1200	     9.220
  24.780	        96	    1200	     9.798
  24.800	        97	    1200	     9.849
  24.820	        99	    1200	     9.950
  24.840	       100	    1200	    10.000
  24.860	       102	    1200	    10.100
  24.880	        91	    1200	     9.539
  24.900	       112	    1200	    10.583
  24.920	        87	    1200	     9.327
  24.940	        81	    1200	     9.000
  24.960	        99	    1200	     9.950
  24.980	       107	    1200	    10.344
  25.000	        99	    1200	     9.950
  25.020	       100	    1200	    10.000
  25.040	       103	    1200	    10.149
  25.060	        96	    1200	     9.798
  25.080	        94	    1200	     9.695
  25.100	        82	    1200	     9.055
  25.120	        91	    1200	     9.539
  25.140	       106	    1200	    10.296
  25.160	        87	    1200	     9.327
  25.180	       100	    1200	    10.000
  25.200	       102	    1200	    10.100
  25.220	       100	    1200	    10.000
  25.240	        83	    1200	     9.110
  25.260	        73	    1200	     8.544
  25.280	        83	    1200	     9.110
  25.300	        83	    1200	     9.110
  25.320	        93	    1200	     9.644
  25.340	        99	    1200	     9.950
  25.360	        98	    1200	     9.899
  25.380	        89	    1200	     9.434
  25.400	        93	    1200	     9.644
  25.420	        84	    1200	     9.165
  25.440	        96	    1200	     9.798
  25.460	        88	    1200	     9.381
  25.480	        84	    1200	     9.165
  25.500	        92	    1200	     9.592
  25.520	        95	    1200	     9.747
  25.540	        74	    1200	     8.602
  25.560	        89	    1200	     9.434
  25.580	        89	    1200	     9.434
  25.600	        91	    1200	     9.539
  25.620	       100	    1200	    10.000
  25.640	        74	    1200	     8.602
  25.660	        86	    1200	     9.274
  25.680	        86	    1200	     9.274
  25.700	        92	    1200	     9.592
  25.720	        88	    1200	     9.381
  25.740	       100	    1200	    10.000
  25.760	        74	    1200	     8.602
  25.780	        73	    1200	     8.544
  25.800	        72	    1200	     8.485
  25.820	        78	    1200	     8.832
  25.840	       100	    1200	    10.000
  25.860	        89	    1200	     9.434
  25.880	        84	    1200	     9.165
  25.900	        88	    1200	     9.381
  25.920	        75	    1200	     8.660
  25.940	        87	    1200	     9.327
  25.960	        70	    1200	     8.367
  25.980	        94	    1200	     9.695
  26.000	        89	    1200	     9.434
  26.020	        88	    1200	     9.381
  26.040	        74	    1200	     8.602
  26.060	        82	    1200	     9.055
  26.080	        80	    1200	     8.944
  26.100	        87	    1200	     9.327
  26.120	        85	    1200	     9.220
  26.140	       107	    1200	    10.344
  26.160	        84	    1200	     9.165
  26.180	        82	    1200	     9.055
  26.200	        91	    1200	     9.539
  26.220	        93	    1200	     9.644
  26.240	        76	    1200	     8.718
  26.260	        81	    1200	     9.000
  26.280	        76	    1200	     8.718
  26.300	        86	    1200	     9.274
  26.320	        87	    1200	     9.327
  26.340	        85	    1200	     9.220
  26.360	        74	    1200	     8.602
  26.380	        98	    1200	     9.899
  26.400	        77	    1200	     8.775
  26.420	        83	    1200	     9.110
  26.440	        91	    1200	     9.539
  26.460	        86	    1200	     9.274
  26.480	        87	    1200	     9.327
  26.500	        70	    1200	     8.367
  26.520	        67	    1200	     8.185
  26.540	        83	    1200	     9.110
  26.560	        84	    1200	     9.165
  26.580	        88	    1200	     9.381
  26.600	        87	    1200	     9.327
  26.620	        67	    1200	     8.185
  26.640	        68	    1200	     8.246
  26.660	        86	    1200	     9.274
  26.680	        71	    1200	     8.426
  26.700	        79	    1200	     8.888
  26.720	        83	    1200	     9.110
  26.740	        96	    1200	     9.798
  26.760	        81	    1200	     9.000
  26.780	        79	    1200	     8.888
  26.800	        72	    1200	     8.485
  26.820	        76	    1200	     8.718
  26.840	        76	    1200	     8.718
  26.860	        68	    1200	     8.246
  26.880	        79	    1200	     8.888
  26.900	        72	    1200	     8.485
  26.920	        60	    1200	     7.746
  26.940	        67	    1200	     8.185
  26.960	        74	    1200	     8.602
  26.980	        64	    1200	     8.000
  27.000	        62	    1200	     7.874
  27.020	        85	    1200	     9.220
  27.040	        69	    1200	     8.307
  27.060	        77	    1200	     8.775
  27.080	        80	    1200	     8.944
  27.100	        76	    1200	     8.718
  27.120	        81	    1200	     9.000
  27.140	        64	    1200	     8.000
  27.160	        75	    1200	     8.660
  27.180	        89	    1200	     9.434
  27.200	        63	    1200	     7.937
  27.220	        78	    1200	     8.832
  27.240	        63	    1200	     7.937
  27.260	        78	    1200	     8.832
  27.280	        76	    1200	     8.718
  27.300	        84	    1200	     9.165
  27.320	        75	    1200	     8.660
  27.340	        70	    1200	     8.367
  27.360	        69	    1200	     8.307
  27.380	        79	    1200	     8.888
  27.400	        59	    1200	     7.681
  27.420	        83	    1200	     9.110
  27.440	        74	    1200	     8.602
  27.460	        71	    1200	     8.426
  27.480	        65	    1200	     8.062
  27.500	        77	    1200	     8.775
  27.520	        76	    1200	     8.718
  27.540	        75	    1200	     8.660
  27.560	        84	    1200	     9.165
  27.580	        66	    1200	     8.124
  27.600	        80	    1200	     8.944
  27.620	        83	    1200	     9.110
  27.640	        66	    1200	     8.124
  27.660	        62	    1200	     7.874
  27.680	        43	    1200	     6.557
  27.700	        72	    1200	     8.485
  27.720	        72	    1200	     8.485
  27.740	        76	    1200	     8.718
  27.760	        80	    1200	     8.944
  27.780	        68	    1200	     8.246
  27.800	        79	    1200	     8.888
  27.820	        72	    1200	     8.485
  27.840	        85	    1200	     9.220
  27.860	        81	    1200	     9.000
  27.880	        73	    1200	     8.544
  27.900	        70	    1200	     8.367
  27.920	        67	    1200	     8.185
  27.940	        56	    1200	     7.483
  27.960	        78	    1200	     8.832
  27.980	        70	    1200	     8.367
  28.000	        77	    1200	     8.775
  28.020	        67	    1200	     8.185
  28.040	        72	    1200	     8.485
  28.060	        73	    1200	     8.544
  28.080	        54	    1200	     7.348
  28.100	        86	    1200	     9.274
  28.120	        56	    1200	     7.483
  28.140	        65	    1200	     8.062
  28.160	        75	    1200	     8.660
  28.180	        52	    1200	     7.211
  28.200	        72	    1200	     8.485
  28.220	        63	    1200	     7.937
  28.240	        70	    1200	     8.367
  28.260	        68	    1200	     8.246
  28.280	        75	    1200	     8.660
  28.300	        64	    1200	     8.000
  28.320	        66	    1200	     8.124
  28.340	        61	    1200	     7.810
  28.360	        67	    1200	     8.185
  28.380	        77	    1200	     8.775
  28.400	        78	    1200	     8.832
  28.420	        63	    1200	     7.937
  28.440	        48	    1200	     6.928
  28.460	        71	    1200	     8.426
  28.480	        66	    1200	     8.124
  28.500	        68	    1200	     8.246
  28.520	        64	    1200	     8.000
  28.540	        62	    1200	     7.874
  28.560	        52	    1200	     7.211
  28.580	        62	    1200	     7.874
  28.600	        65	    1200	     8.062
  28.620	        81	    1200	     9.000
  28.640	        63	    1200	     7.937
  28.660	        81	    1200	     9.000
  28.680	        70	    1200	     8.367
  28.700	        61	    1200	     7.810
  28.720	        53	    1200	     7.280
  28.740	        75	    1200	     8.660
  28.760	        64	    1200	     8.000
  28.780	        54	    1200	     7.348
  28.800	        63	    1200	     7.937
  28.820	        68	    1200	     8.246
  28.840	        57	    1200	     7.550
  28.860	        67	    1200	     8.185
  28.880	        66	    1200	     8.124
  28.900	        66	    1200	     8.124
  28.920	        63	    1200	     7.937
  28.940	        70	    1200	     8.367
  28.960	        74	    1200	     8.602
  28.980	        68	    1200	     8.246
  29.000	        44	    1200	     6.633
  29.020	        67	    1200	     8.185
  29.040	        70	    1200	     8.367
  29.060	        69	    1200	     8.307
  29.080	        67	    1200	     8.185
  29.100	        45	    1200	     6.708
  29.120	        65	    1200	     8.062
  29.140	        56	    1200	     7.483
  29.160	        52	    1200	     7.211
  29.180	        57	    1200	     7.550
  29.200	        57	    1200	     7.550
  29.220	        62	    1200	     7.874
  29.240	        59	    1200	     7.681
  29.260	        70	    1200	     8.367
  29.280	        62	    1200	     7.874
  29.300	        52	    1200	     7.211
  29.320	        61	    1200	     7.810
  29.340	        59	    1200	     7.681
  29.360	        60	    1200	     7.746
  29.380	        60	    1200	     7.746
  29.400	        73	    1200	     8.544
  29.420	        62	    1200	     7.874
  29.440	        74	    1200	     8.602
  29.460	        52	    1200	     7.211
  29.480	        61	    1200	     7.810
  29.500	        80	    1200	     8.944
  29.520	        61	    1200	     7.810
  29.540	        60	    1200	     7.746
  29.560	        54	    1200	     7.348
  29.580	        59	    1200	     7.681
  29.600	        57	    1200	     7.550
  29.620	        58	    1200	     7.616
  29.640	        59	    1200	     7.681
  29.660	        57	    1200	     7.550
  29.680	        59	    1200	     7.681
  29.700	        67	    1200	     8.185
  29.720	        61	    1200	     7.810
  29.740	        57	    1200	     7.550
  29.760	        50	    1200	     7.071
  29.780	        66	    1200	     8.124
  29.800	        75	    1200	     8.660
  29.820	        65	    1200	     8.062
  29.840	        55	    1200	     7.416
  29.860	        51	    1200	     7.141
  29.880	        58	    1200	     7.616
  29.900	        68	    1200	     8.246
  29.920	        54	    1200	     7.348
  29.940	        63	    1200	     7.937
  29.960	        76	    1200	     8.718
  29.980	        58	    1200	     7.616
  30.000	        56	    1200	     7.483
  30.020	        59	    1200	     7.681
  30.040	        78	    1200	     8.832
  30.060	        55	    1200	     7.416
  30.080	        48	    1200	     6.928
  30.100	        50	    1200	     7.071
  30.120	        56	    1200	     7.483
  30.140	        52	    1200	     7.211
  30.160	        69	    1200	     8.307
  30.180	        56	    1200	     7.483
  30.200	        64	    1200	     8.000
  30.220	        57	    1200	     7.550
  30.240	        64	    1200	     8.000
  30.260	        58	    1200	     7.616
  30.280	        55	    1200	     7.416
  30.300	        67	    1200	     8.185
  30.320	        69	    1200	     8.307
  30.340	        57	    1200	     7.550
  30.360	        59	    1200	     7.681
  30.380	        63	    1200	     7.937
  30.400	        60	    1200	     7.746
  30.420	        57	    1200	     7.550
  30.440	        63	    1200	     7.937
  30.460	        86	    1200	     9.274
  30.480	        63	    1200	     7.937
  30.500	        60	    1200	     7.746
  30.520	        71	    1200	     8.426
  30.540	        57	    1200	     7.550
  30.560	        59	    1200	     7.681
  30.580	        60	    1200	     7.746
  30.600	        60	    1200	     7.746
  30.620	        54	    1200	     7.348
  30.640	        62	    1200	     7.874
  30.660	        54	    1200	     7.348
  30.680	        70	    1200	     8.367
  30.700	        55	    1200	     7.416
  30.720	        61	    1200	     7.810
  30.740	        68	    1200	     8.246
  30.760	        59	    1200	     7.681
  30.780	        68	    1200	     8.246
  30.800	        60	    1200	     7.746
  30.820	        54	    1200	     7.348
  30.840	        67	    1200	     8.185
  30.860	        65	    1200	     8.062
  30.880	        50	    1200	     7.071
  30.900	        52	    1200	     7.211
  30.920	        63	    1200	     7.937
  30.940	        67	    1200	     8.185
  30.960	        51	    1200	     7.141
  30.980	        61	    1200	     7.810
  31.000	        69	    1200	     8.307
  31.020	        71	    1200	     8.426
  31.040	        58	    1200	     7.616
  31.060	        68	    1200	     8.246
  31.080	        68	    1200	     8.246
  31.100	        76	    1200	     8.718
  31.120	        77	    1200	     8.775
  31.140	        54	    1200	     7.348
  31.160	        68	    1200	     8.246
  31.180	        67	    1200	     8.185
  31.200	        65	    1200	     8.062
  31.220	        66	    1200	     8.124
  31.240	        72	    1200	     8.485
  31.260	        61	    1200	     7.810
  31.280	        92	    1200	     9.592
  31.300	        79	    1200	     8.888
  31.320	        93	    1200	     9.644
  31.340	        95	    1200	     9.747
  31.360	        86	    1200	     9.274
  31.380	       114	    1200	    10.677
  31.400	       149	    1200	    12.207
  31.420	       147	    1200	    12.124
  31.440	       171	    1200	    13.077
  31.460	       214	    1200	    14.629
  31.480	       236	    1200	    15.362
  31.500	       231	    1200	    15.199
  31.520	       280	    1200	    16.733
  31.540	       296	    1200	    17.205
  31.560	       301	    1200	    17.349
  31.580	       341	    1200	    18.466
  31.600	       383	    1200	    19.570
  31.620	       418	    1200	    20.445
  31.640	       419	    1200	    20.469
  31.660	       483	    1200	    21.977
  31.680	       494	    1200	    22.226
  31.700	       527	    1200	    22.956
  31.720	       546	    1200	    23.367
  31.740	       486	    1200	    22.045
  31.760	       561	    1200	    23.685
  31.780	       481	    1200	    21.932
  31.800	       481	    1200	    21.932
  31.820	       457	    1200	    21.378
  31.840	       374	    1200	    19.339
  31.860	       374	    1200	    19.339
  31.880	       329	    1200	    18.138
  31.900	       269	    1200	    16.401
  31.920	       291	    1200	    17.059
  31.940	       278	    1200	    16.673
  31.960	       229	    1200	    15.133
  31.980	       243	    1200	    15.588
  32.000	       272	    1200	    16.492
  32.020	       269	    1200	    16.401
  32.040	       283	    1200	    16.823
  32.060	       317	    1200	    17.804
  32.080	       341	    1200	    18.466
  32.100	       362	    1200	    19.026
  32.120	       456	    1200	    21.354
  32.140	       511	    1200	    22.605
  32.160	       586	    1200	    24.207
  32.180	       733	    1200	    27.074
  32.200	       824	    1200	    28.705
  32.220	       900	    1200	    30.000
  32.240	      1076	    1200	    32.802
  32.260	      1185	    1200	    34.424
  32.280	      1234	    1200	    35.128
  32.300	      1228	    1200	    35.043
  32.320	      1194	    1200	    34.554
  32.340	      1203	    1200	    34.684
  32.360	      1129	    1200	    33.601
  32.380	      1051	    1200	    32.419
  32.400	       938	    1200	    30.627
  32.420	       790	    1200	    28.107
  32.440	       745	    1200	    27.295
  32.460	       574	    1200	    23.958
  32.480	       520	    1200	    22.804
  32.500	       423	    1200	    20.567
  32.520	       361	    1200	    19.000
  32.540	       274	    1200	    16.553
  32.560	       291	    1200	    17.059
  32.580	       214	    1200	    14.629
  32.600	       209	    1200	    14.457
  32.620	       169	    1200	    13.000
  32.640	       117	    1200	    10.817
  32.660	       144	    1200	    12.000
  32.680	       134	    1200	    11.576
  32.700	       131	    1200	    11.446
  32.720	       104	    1200	    10.198
  32.740	        97	    1200	     9.849
  32.760	        87	    1200	     9.327
  32.780	       112	    1200	    10.583
  32.800	       104	    1200	    10.198
  32.820	        91	    1200	     9.539
  32.840	        98	    1200	     9.899
  32.860	        82	    1200	     9.055
  32.880	        83	    1200	     9.110
  32.900	        72	    1200	     8.485
  32.920	        60	    1200	     7.746
  32.940	        75	    1200	     8.660
  32.960	        83	    1200	     9.110
  32.980	        64	    1200	     8.000
  33.000	        71	    1200	     8.426
  33.020	        72	    1200	     8.485
  33.040	        54	    1200	     7.348
  33.060	        56	    1200	     7.483
  33.080	        66	    1200	     8.124
  33.100	        68	    1200	     8.246
  33.120	        54	    1200	     7.348
  33.140	        55	    1200	     7.416
  33.160	        54	    1200	     7.348
  33.180	        50	    1200	     7.071
  33.200	        47	    1200	     6.856
  33.220	        51	    1200	     7.141
  33.240	        59	    1200	     7.681
  33.260	        61	    1200	     7.810
  33.280	        47	    1200	     6.856
  33.300	        64	    1200	     8.000
  33.320	        50	    1200	     7.071
  33.340	        51	    1200	     7.141
  33.360	        53	    1200	     7.280
  33.380	        43	    1200	     6.557
  33.400	        53	    1200	     7.280
  33.420	        51	    1200	     7.141
  33.440	        50	    1200	     7.071
  33.460	        63	    1200	     7.937
  33.480	        57	    1200	     7.550
  33.500	        47	    1200	     6.856
  33.520	        48	    1200	     6.928
  33.540	        46	    1200	     6.782
  33.560	        70	    1200	     8.367
  33.580	        50	    1200	     7.071
  33.600	        44	    1200	     6.633
  33.620	        56	    1200	     7.483
  33.640	        37	    1200	     6.083
  33.660	        45	    1200	     6.708
  33.680	        45	    1200	     6.708
  33.700	        44	    1200	     6.633
  33.720	        50	    1200	     7.071
  33.740	        57	    1200	     7.550
  33.760	        52	    1200	     7.211
  33.780	        49	    1200	     7.000
  33.800	        50	    1200	     7.071
  33.820	        50	    1200	     7.071
  33.840	        54	    1200	     7.348
  33.860	        46	    1200	     6.782
  33.880	        50	    1200	     7.071
  33.900	        31	    1200	     5.568
  33.920	        44	    1200	     6.633
  33.940	        52	    1200	     7.211
  33.960	        50	    1200	     7.071
  33.980	        38	    1200	     6.164
  34.000	        47	    1200	     6.856
  34.020	        39	    1200	     6.245
  34.040	        35	    1200	     5.916
  34.060	        35	    1200	     5.916
  34.080	        46	    1200	     6.782
  34.100	        46	    1200	     6.782
  34.120	        38	    1200	     6.164
  34.140	        44	    1200	     6.633
  34.160	        47	    1200	     6.856
  34.180	        34	    1200	     5.831
  34.200	        34	    1200	     5.831
  34.220	        51	    1200	     7.141
  34.240	        52	    1200	     7.211
  34.260	        34	    1200	     5.831
  34.280	        44	    1200	     6.633
  34.300	        40	    1200	     6.325
  34.320	        38	    1200	     6.164
  34.340	        41	    1200	     6.403
  34.360	        43	    1200	     6.557
  34.380	        46	    1200	     6.782
  34.400	        42	    1200	     6.481
  34.420	        39	    1200	     6.245
  34.440	        40	    1200	     6.325
  34.460	        44	    1200	     6.633
  34.480	        36	    1200	     6.000
  34.500	        36	    1200	     6.000
  34.520	        39	    1200	     6.245
  34.540	        33	    1200	     5.745
  34.560	        50	    1200	     7.071
  34.580	        33	    1200	     5.745
  34.600	        40	    1200	     6.325
  34.620	        37	    1200	     6.083
  34.640	        44	    1200	     6.633
  34.660	        36	    1200	     6.000
  34.680	        29	    1200	     5.385
  34.700	        43	    1200	     6.557
  34.720	        23	    1200	     4.796
  34.740	        41	    1200	     6.403
  34.760	        51	    1200	     7.141
  34.780	        32	    1200	     5.657
  34.800	        40	    1200	     6.325
  34.820	        38	    1200	     6.164
  34.840	        32	    1200	     5.657
  34.860	        49	    1200	     7.000
  34.880	        38	    1200	     6.164
  34.900	        34	    1200	     5.831
  34.920	        34	    1200	     5.831
  34.940	        31	    1200	     5.568
  34.960	        34	    1200	     5.831
  34.980	        48	    1200	     6.928
  35.000	        38	    1200	     6.164
  35.020	        43	    1200	     6.557
  35.040	        39	    1200	     6.245
  35.060	        32	    1200	     5.657
  35.080	        47	    1200	     6.856
  35.100	        37	    1200	     6.083
  35.120	        37	    1200	     6.083
  35.140	        36	    1200	     6.000
  35.160	        26	    1200	     5.099
  35.180	        48	    1200	     6.928
  35.200	        21	    1200	     4.583
  35.220	        32	    1200	     5.657
  35.240	        34	    1200	     5.831
  35.260	        32	    1200	     5.657
  35.280	        34	    1200	     5.831
  35.300	        32	    1200	     5.657
  35.320	        25	    1200	     5.000
  35.340	        31	    1200	     5.568
  35.360	        37	    1200	     6.083
  35.380	        36	    1200	     6.000
  35.400	        41	    1200	     6.403
  35.420	        47	    1200	     6.856
  35.440	        43	    1200	     6.557
  35.460	        40	    1200	     6.325
  35.480	        30	    1200	     5.477
  35.500	        40	    1200	     6.325
  35.520	        40	    1200	     6.325
  35.540	        52	    1200	     7.211
  35.560	        33	    1200	     5.745
  35.580	        27	    1200	     5.196
  35.600	        31	    1200	     5.568
  35.620	        28	    1200	     5.292
  35.640	        34	    1200	     5.831
  35.660	        35	    1200	     5.916
  35.680	        35	    1200	     5.916
  35.700	        41	    1200	     6.403
  35.720	        29	    1200	     5.385
  35.740	        33	    1200	     5.745
  35.760	        30	    1200	     5.477
  35.780	        22	    1200	     4.690
  35.800	        31	    1200	     5.568
  35.820	        39	    1200	     6.245
  35.840	        44	    1200	     6.633
  35.860	        48	    1200	     6.928
  35.880	        36	    1200	     6.000
  35.900	        32	    1200	     5.657
  35.920	        30	    1200	     5.477
  35.940	        28	    1200	     5.292
  35.960	        31	    1200	     5.568
  35.980	        38	    1200	     6.164
  36.000	        31	    1200	     5.568
  36.020	        29	    1200	     5.385
  36.040	        34	    1200	     5.831
  36.060	        34	    1200	     5.831
  36.080	        28	    1200	     5.292
  36.100	        27	    1200	     5.196
  36.120	        45	    1200	     6.708
  36.140	        35	    1200	     5.916
  36.160	        38	    1200	     6.164
  36.180	        27	    1200	     5.196
  36.200	        30	    1200	     5.477
  36.220	        37	    1200	     6.083
  36.240	        23	    1200	     4.796
  36.260	        39	    1200	     6.245
  36.280	        36	    1200	     6.000
  36.300	        32	    1200	     5.657
  36.320	        25	    1200	     5.000
  36.340	        35	    1200	     5.916
  36.360	        35	    1200	     5.916
  36.380	        34	    1200	     5.831
  36.400	        34	    1200	     5.831
  36.420	        30	    1200	     5.477
  36.440	        34	    1200	     5.831
  36.460	        37	    1200	     6.083
  36.480	        30	    1200	     5.477
  36.500	        42	    1200	     6.481
  36.520	        37	    1200	     6.083
  36.540	        35	    1200	     5.916
  36.560	        49	    1200	     7.000
  36.580	        33	    1200	     5.745
  36.600	        29	    1200	     5.385
  36.620	        32	    1200	     5.657
  36.640	        33	    1200	     5.745
  36.660	        26	    1200	     5.099
  36.680	        31	    1200	     5.568
  36.700	        42	    1200	     6.481
  36.720	        33	    1200	     5.745
  36.740	        25	    1200	     5.000
  36.760	        34	    1200	     5.831
  36.780	        29	    1200	     5.385
  36.800	        27	    1200	     5.196
  36.820	        36	    1200	     6.000
  36.840	        32	    1200	     5.657
  36.860	        36	    1200	     6.000
  36.880	        23	    1200	     4.796
  36.900	        36	    1200	     6.000
  36.920	        25	    1200	     5.000
  36.940	        28	    1200	     5.292
  36.960	        28	    1200	     5.292
  36.980	        38	    1200	     6.164
  37.000	        26	    1200	     5.099
  37.020	        26	    1200	     5.099
  37.040	        22	    1200	     4.690
  37.060	        38	    1200	     6.164
  37.080	        23	    1200	     4.796
  37.100	        49	    1200	     7.000
  37.120	        26	    1200	     5.099
  37.140	        30	    1200	     5.477
  37.160	        26	    1200	     5.099
  37.180	        28	    1200	     5.292
  37.200	        26	    1200	     5.099
  37.220	        23	    1200	     4.796
  37.240	        29	    1200	     5.385
  37.260	        22	    1200	     4.690
  37.280	        35	    1200	     5.916
  37.300	        29	    1200	     5.385
  37.320	        30	    1200	     5.477
  37.340	        21	    1200	     4.583
  37.360	        38	    1200	     6.164
  37.380	        34	    1200	     5.831
  37.400	        19	    1200	     4.359
  37.420	        28	    1200	     5.292
  37.440	        24	    1200	     4.899
  37.460	        35	    1200	     5.916
  37.480	        31	    1200	     5.568
  37.500	        40	    1200	     6.325
  37.520	        36	    1200	     6.000
  37.540	        34	    1200	     5.831
  37.560	        41	    1200	     6.403
  37.580	        35	    1200	     5.916
  37.600	        32	    1200	     5.657
  37.620	        42	    1200	     6.481
  37.640	        28	    1200	     5.292
  37.660	        44	    1200	     6.633
  37.680	        38	    1200	     6.164
  37.700	        36	    1200	     6.000
  37.720	        39	    1200	     6.245
  37.740	        29	    1200	     5.385
  37.760	        30	    1200	     5.477
  37.780	        37	    1200	     6.083
  37.800	        36	    1200	     6.000
  37.820	        30	    1200	     5.477
  37.840	        29	    1200	     5.385
  37.860	        33	    1200	     5.745
  37.880	        32	    1200	     5.657
  37.900	        26	    1200	     5.099
  37.920	        27	    1200	     5.196
  37.940	        32	    1200	     5.657
  37.960	        25	    1200	     5.000
  37.980	        37	    1200	     6.083
  38.000	        33	    1200	     5.745
  38.020	        41	    1200	     6.403
  38.040	        29	    1200	     5.385
  38.060	        24	    1200	     4.899
  38.080	        34	    1200	     5.831
  38.100	        29	    1200	     5.385
  38.120	        29	    1200	     5.385
  38.140	        49	    1200	     7.000
  38.160	        32	    1200	     5.657
  38.180	        35	    1200	     5.916
  38.200	        25	    1200	     5.000
  38.220	        36	    1200	     6.000
  38.240	        28	    1200	     5.292
  38.260	        25	    1200	     5.000
  38.280	        30	    1200	     5.477
  38.300	        26	    1200	     5.099
  38.320	        32	    1200	     5.657
  38.340	        40	    1200	     6.325
  38.360	        31	    1200	     5.568
  38.380	        33	    1200	     5.745
  38.400	        32	    1200	     5.657
  38.420	        28	    1200	     5.292
  38.440	        43	    1200	     6.557
  38.460	        40	    1200	     6.325
  38.480	        36	    1200	     6.000
  38.500	        42	    1200	     6.481
  38.520	        31	    1200	     5.568
  38.540	        30	    1200	     5.477
  38.560	        35	    1200	     5.916
  38.580	        23	    1200	     4.796
  38.600	        37	    1200	     6.083
  38.620	        29	    1200	     5.385
  38.640	        28	    1200	     5.292
  38.660	        29	    1200	     5.385
  38.680	        34	    1200	     5.831
  38.700	        28	    1200	     5.292
  38.720	        26	    1200	     5.099
  38.740	        24	    1200	     4.899
  38.760	        34	    1200	     5.831
  38.780	        27	    1200	     5.196
  38.800	        20	    1200	     4.472
  38.820	        28	    1200	     5.292
  38.840	        33	    1200	     5.745
  38.860	        39	    1200	     6.245
  38.880	        29	    1200	     5.385
  38.900	        31	    1200	     5.568
  38.920	        32	    1200	     5.657
  38.940	        15	    1200	     3.873
  38.960	        28	    1200	     5.292
  38.980	        28	    1200	     5.292
  39.000	        36	    1200	     6.000
  39.020	        38	    1200	     6.164
  39.040	        31	    1200	     5.568
  39.060	        31	    1200	     5.568
  39.080	        25	    1200	     5.000
  39.100	        40	    1200	     6.325
  39.120	        31	    1200	     5.568
  39.140	        24	    1200	     4.899
  39.160	        29	    1200	     5.385
  39.180	        38	    1200	     6.164
  39.200	        32	    1200	     5.657
  39.220	        30	    1200	     5.477
  39.240	        26	    1200	     5.099
  39.260	        32	    1200	     5.657
  39.280	        32	    1200	     5.657
  39.300	        27	    1200	     5.196
  39.320	        39	    1200	     6.245
  39.340	        29	    1200	     5.385
  39.360	        37	    1200	     6.083
  39.380	        37	    1200	     6.083
  39.400	        24	    1200	     4.899
  39.420	        33	    1200	     5.745
  39.440	        36	    1200	     6.000
  39.460	        46	    1200	     6.782
  39.480	        32	    1200	     5.657
  39.500	        47	    1200	     6.856
  39.520	        47	    1200	     6.856
  39.540	        46	    1200	     6.782
  39.560	        45	    1200	     6.708
  39.580	        41	    1200	     6.403
  39.600	        45	    1200	     6.708
  39.620	        72	    1200	     8.485
  39.640	        68	    1200	     8.246
  39.660	        87	    1200	     9.327
  39.680	        94	    1200	     9.695
  39.700	        86	    1200	     9.274
  39.720	       100	    1200	    10.000
  39.740	       112	    1200	    10.583
  39.760	       120	    1200	    10.954
  39.780	       142	    1200	    11.916
  39.800	       127	    1200	    11.269
  39.820	       115	    1200	    10.724
  39.840	       118	    1200	    10.863
  39.860	       147	    1200	    12.124
  39.880	       123	    1200	    11.091
  39.900	       129	    1200	    11.358
  39.920	       122	    1200	    11.045
  39.940	        85	    1200	     9.220
  39.960	        88	    1200	     9.381
  39.980	        91	    1200	     9.539
  40.000	        97	    1200	     9.849
  40.020	       100	    1200	    10.000
  40.040	        73	    1200	     8.544
  40.060	        60	    1200	     7.746
  40.080	        61	    1200	     7.810
  40.100	        56	    1200	     7.483
  40.120	        66	    1200	     8.124
  40.140	        50	    1200	     7.071
  40.160	        40	    1200	     6.325
  40.180	        50	    1200	     7.071
  40.200	        45	    1200	     6.708
  40.220	        49	    1200	     7.000
  40.240	        40	    1200	     6.325
  40.260	        44	    1200	     6.633
  40.280	        36	    1200	     6.000
  40.300	        36	    1200	     6.000
  40.320	        44	    1200	     6.633
  40.340	        42	    1200	     6.481
  40.360	        34	    1200	     5.831
  40.380	        40	    1200	     6.325
  40.400	        35	    1200	     5.916
  40.420	        32	    1200	     5.657
  40.440	        43	    1200	     6.557
  40.460	        43	    1200	     6.557
  40.480	        40	    1200	     6.325
  40.500	        27	    1200	     5.196
  40.520	        40	    1200	     6.325
  40.540	        39	    1200	     6.245
  40.560	        35	    1200	     5.916
  40.580	        38	    1200	     6.164
  40.600	        26	    1200	     5.099
  40.620	        30	    1200	     5.477
  40.640	        29	    1200	     5.385
  40.660	        30	    1200	     5.477
  40.680	        35	    1200	     5.916
  40.700	        35	    1200	     5.916
  40.720	        36	    1200	     6.000
  40.740	        42	    1200	     6.481
  40.760	        32	    1200	     5.657
  40.780	        25	    1200	     5.000
  40.800	        34	    1200	     5.831
  40.820	        39	    1200	     6.245
  40.840	        32	    1200	     5.657
  40.860	        39	    1200	     6.245
  40.880	        23	    1200	     4.796
  40.900	        40	    1200	     6.325
  40.920	        34	    1200	     5.831
  40.940	        33	    1200	     5.745
  40.960	        40	    1200	     6.325
  40.980	        43	    1200	     6.557
  41.000	        51	    1200	     7.141
  41.020	        59	    1200	     7.681
  41.040	        49	    1200	     7.000
  41.060	        54	    1200	     7.348
  41.080	        56	    1200	     7.483
  41.100	        74	    1200	     8.602
  41.120	        99	    1200	     9.950
  41.140	        76	    1200	     8.718
  41.160	       100	    1200	    10.000
  41.180	        90	    1200	     9.487
  41.200	        94	    1200	     9.695
  41.220	        77	    1200	     8.775
  41.240	       105	    1200	    10.247
  41.260	       110	    1200	    10.488
  41.280	       127	    1200	    11.269
  41.300	        94	    1200	     9.695
  41.320	       115	    1200	    10.724
  41.340	        95	    1200	     9.747
  41.360	       110	    1200	    10.488
  41.380	       117	    1200	    10.817
  41.400	       117	    1200	    10.817
  41.420	       122	    1200	    11.045
  41.440	       109	    1200	    10.440
  41.460	       113	    1200	    10.630
  41.480	       110	    1200	    10.488
  41.500	        96	    1200	     9.798
  41.520	        97	    1200	     9.849
  41.540	        85	    1200	     9.220
  41.560	        66	    1200	     8.124
  41.580	        77	    1200	     8.775
  41.600	        66	    1200	     8.124
  41.620	        64	    1200	     8.000
  41.640	        57	    1200	     7.550
  41.660	        79	    1200	     8.888
  41.680	        66	    1200	     8.124
  41.700	        64	    1200	     8.000
  41.720	        52	    1200	     7.211
  41.740	        68	    1200	     8.246
  41.760	        50	    1200	     7.071
  41.780	        56	    1200	     7.483
  41.800	        60	    1200	     7.746
  41.820	        58	    1200	     7.616
  41.840	        47	    1200	     6.856
  41.860	        60	    1200	     7.746
  41.880	        54	    1200	     7.348
  41.900	        59	    1200	     7.681
  41.920	        45	    1200	     6.708
  41.940	        64	    1200	     8.000
  41.960	        46	    1200	     6.782
  41.980	        44	    1200	     6.633
  42.000	        56	    1200	     7.483
  42.020	        51	    1200	     7.141
  42.040	        35	    1200	     5.916
  42.060	        48	    1200	     6.928
  42.080	        35	    1200	     5.916
  42.100	        46	    1200	     6.782
  42.120	        39	    1200	     6.245
  42.140	        39	    1200	     6.245
  42.160	        48	    1200	     6.928
  42.180	        34	    1200	     5.831
  42.200	        25	    1200	     5.000
  42.220	        41	    1200	     6.403
  42.240	        28	    1200	     5.292
  42.260	        38	    1200	     6.164
  42.280	        32	    1200	     5.657
  42.300	        30	    1200	     5.477
  42.320	        26	    1200	     5.099
  42.340	        25	    1200	     5.000
  42.360	        29	    1200	     5.385
  42.380	        26	    1200	     5.099
  42.400	        30	    1200	     5.477
  42.420	        26	    1200	     5.099
  42.440	        30	    1200	     5.477
  42.460	        31	    1200	     5.568
  42.480	        33	    1200	     5.745
  42.500	        30	    1200	     5.477
  42.520	        28	    1200	     5.292
  42.540	        28	    1200	     5.292
  42.560	        27	    1200	     5.196
  42.580	        19	    1200	     4.359
  42.600	        12	    1200	     3.464
  42.620	        26	    1200	     5.099
  42.640	        22	    1200	     4.690
  42.660	        25	    1200	     5.000
  42.680	        20	    1200	     4.472
  42.700	        21	    1200	     4.583
  42.720	        20	    1200	     4.472
  42.740	        14	    1200	     3.742
  42.760	        20	    1200	     4.472
  42.780	        22	    1200	     4.690
  42.800	        28	    1200	     5.292
  42.820	        36	    1200	     6.000
  42.840	        23	    1200	     4.796
  42.860	        16	    1200	     4.000
  42.880	        30	    1200	     5.477
  42.900	        26	    1200	     5.099
  42.920	        24	    1200	     4.899
  42.940	        29	    1200	     5.385
  42.960	        25	    1200	     5.000
  42.980	        15	    1200	     3.873
  43.000	        23	    1200	     4.796
  43.020	        16	    1200	     4.000
  43.040	        22	    1200	     4.690
  43.060	        16	    1200	     4.000
  43.080	        31	    1200	     5.568
  43.100	        28	    1200	     5.292
  43.120	        18	    1200	     4.243
  43.140	        17	    1200	     4.123
  43.160	        23	    1200	     4.796
  43.180	        18	    1200	     4.243
  43.200	        23	    1200	     4.796
  43.220	        19	    1200	     4.359
  43.240	        32	    1200	     5.657
  43.260	        16	    1200	     4.000
  43.280	        23	    1200	     4.796
  43.300	        27	    1200	     5.196
  43.320	        24	    1200	     4.899
  43.340	        28	    1200	     5.292
  43.360	        19	    1200	     4.359
  43.380	        17	    1200	     4.123
  43.400	        17	    1200	     4.123
  43.420	        20	    1200	     4.472
  43.440	        15	    1200	     3.873
  43.460	        19	    1200	     4.359
  43.480	        25	    1200	     5.000
  43.500	        21	    1200	     4.583
  43.520	        23	    1200	     4.796
  43.540	        30	    1200	     5.477
  43.560	        23	    1200	     4.796
  43.580	        33	    1200	     5.745
  43.600	        24	    1200	     4.899
  43.620	        26	    1200	     5.099
  43.640	        20	    1200	     4.472
  43.660	        22	    1200	     4.690
  43.680	        23	    1200	     4.796
  43.700	        32	    1200	     5.657
  43.720	        24	    1200	     4.899
  43.740	        23	    1200	     4.796
  43.760	        20	    1200	     4.472
  43.780	        26	    1200	     5.099
  43.800	        31	    1200	     5.568
  43.820	        35	    1200	     5.916
  43.840	        24	    1200	     4.899
  43.860	        38	    1200	     6.164
  43.880	        35	    1200	     5.916
  43.900	        32	    1200	     5.657
  43.920	        25	    1200	     5.000
  43.940	        34	    1200	     5.831
  43.960	        34	    1200	     5.831
  43.980	        34	    1200	     5.831
  44.000	        26	    1200	     5.099
  44.020	        29	    1200	     5.385
  44.040	        33	    1200	     5.745
  44.060	        34	    1200	     5.831
  44.080	        36	    1200	     6.000
  44.100	        44	    1200	     6.633
  44.120	        38	    1200	     6.164
  44.140	        39	    1200	     6.245
  44.160	        47	    1200	     6.856
  44.180	        52	    1200	     7.211
  44.200	        52	    1200	     7.211
  44.220	        36	    1200	     6.000
  44.240	        50	    1200	     7.071
  44.260	        50	    1200	     7.071
  44.280	        73	    1200	     8.544
  44.300	        73	    1200	     8.544
  44.320	        62	    1200	     7.874
  44.340	        80	    1200	     8.944
  44.360	        78	    1200	     8.832
  44.380	        84	    1200	     9.165
  44.400	        91	    1200	     9.539
  44.420	       116	    1200	    10.770
  44.440	       122	    1200	    11.045
  44.460	       149	    1200	    12.207
  44.480	       160	    1200	    12.649
  44.500	       168	    1200	    12.961
  44.520	       211	    1200	    14.526
  44.540	       209	    1200	    14.457
  44.560	       239	    1200	    15.460
  44.580	       237	    1200	    15.395
  44.600	       208	    1200	    14.422
  44.620	       248	    1200	    15.748
  44.640	       191	    1200	    13.820
  44.660	       195	    1200	    13.964
  44.680	       177	    1200	    13.304
  44.700	       151	    1200	    12.288
  44.720	       166	    1200	    12.884
  44.740	       127	    1200	    11.269
  44.760	       124	    1200	    11.136
  44.780	       106	    1200	    10.296
  44.800	        89	    1200	     9.434
  44.820	        85	    1200	     9.220
  44.840	        89	    1200	     9.434
  44.860	        69	    1200	     8.307
  44.880	        70	    1200	     8.367
  44.900	        62	    1200	     7.874
  44.920	        65	    1200	     8.062
  44.940	        55	    1200	     7.416
  44.960	        64	    1200	     8.000
  44.980	        46	    1200	     6.782
  45.000	        45	    1200	     6.708
  45.020	        54	    1200	     7.348
  45.040	        37	    1200	     6.083
  45.060	        28	    1200	     5.292
  45.080	        43	    1200	     6.557
  45.100	        39	    1200	     6.245
  45.120	        36	    1200	     6.000
  45.140	        44	    1200	     6.633
  45.160	        45	    1200	     6.708
  45.180	        47	    1200	     6.856
  45.200	        34	    1200	     5.831
  45.220	        38	    1200	     6.164
  45.240	        48	    1200	     6.928
  45.260	        32	    1200	     5.657
  45.280	        41	    1200	     6.403
  45.300	        47	    1200	     6.856
  45.320	        43	    1200	     6.557
  45.340	        37	    1200	     6.083
  45.360	        45	    1200	     6.708
  45.380	        43	    1200	     6.557
  45.400	        44	    1200	     6.633
  45.420	        43	    1200	     6.557
  45.440	        47	    1200	     6.856
  45.460	        34	    1200	     5.831
  45.480	        46	    1200	     6.782
  45.500	        51	    1200	     7.141
  45.520	        50	    1200	     7.071
  45.540	        48	    1200	     6.928
  45.560	        64	    1200	     8.000
  45.580	        45	    1200	     6.708
  45.600	        53	    1200	     7.280
  45.620	        57	    1200	     7.550
  45.640	        60	    1200	     7.746
  45.660	        43	    1200	     6.557
  45.680	        53	    1200	     7.280
  45.700	        53	    1200	     7.280
  45.720	        60	    1200	     7.746
  45.740	        56	    1200	     7.483
  45.760	        61	    1200	     7.810
  45.780	        74	    1200	     8.602
  45.800	        71	    1200	     8.426
  45.820	        57	    1200	     7.550
  45.840	        56	    1200	     7.483
  45.860	        67	    1200	     8.185
  45.880	        61	    1200	     7.810
  45.900	        72	    1200	     8.485
  45.920	        60	    1200	     7.746
  45.940	        75	    1200	     8.660
  45.960	        75	    1200	     8.660
  45.980	        73	    1200	     8.544
  46.000	        68	    1200	     8.246
  46.020	        84	    1200	     9.165
  46.040	        97	    1200	     9.849
  46.060	        89	    1200	     9.434
  46.080	        97	    1200	     9.849
  46.100	       117	    1200	    10.817
  46.120	       129	    1200	    11.358
  46.140	       153	    1200	    12.369
  46.160	       156	    1200	    12.490
  46.180	       213	    1200	    14.595
  46.200	       206	    1200	    14.353
  46.220	       253	    1200	    15.906
  46.240	       293	    1200	    17.117
  46.260	       315	    1200	    17.748
  46.280	       354	    1200	    18.815
  46.300	       377	    1200	    19.416
  46.320	       428	    1200	    20.688
  46.340	       464	    1200	    21.541
  46.360	       486	    1200	    22.045
  46.380	       601	    1200	    24.515
  46.400	       587	    1200	    24.228
  46.420	       578	    1200	    24.042
  46.440	       560	    1200	    23.664
  46.460	       564	    1200	    23.749
  46.480	       516	    1200	    22.716
  46.500	       526	    1200	    22.935
  46.520	       469	    1200	    21.656
  46.540	       405	    1200	    20.125
  46.560	       412	    1200	    20.298
  46.580	       369	    1200	    19.209
  46.600	       330	    1200	    18.166
  46.620	       244	    1200	    15.620
  46.640	       255	    1200	    15.969
  46.660	       203	    1200	    14.248
  46.680	       166	    1200	    12.884
  46.700	       147	    1200	    12.124
  46.720	       136	    1200	    11.662
  46.740	       129	    1200	    11.358
  46.760	        97	    1200	     9.849
  46.780	       104	    1200	    10.198
  46.800	        71	    1200	     8.426
  46.820	        75	    1200	     8.660
  46.840	        88	    1200	     9.381
  46.860	        77	    1200	     8.775
  46.880	        50	    1200	     7.071
  46.900	        58	    1200	     7.616
  46.920	        59	    1200	     7.681
  46.940	        52	    1200	     7.211
  46.960	        55	    1200	     7.416
  46.980	        55	    1200	     7.416
  47.000	        45	    1200	     6.708
  47.020	        42	    1200	     6.481
  47.040	        41	    1200	     6.403
  47.060	        27	    1200	     5.196
  47.080	        27	    1200	     5.196
  47.100	        38	    1200	     6.164
  47.120	        29	    1200	     5.385
  47.140	        27	    1200	     5.196
  47.160	        29	    1200	     5.385
  47.180	        25	    1200	     5.000
  47.200	        30	    1200	     5.477
  47.220	        20	    1200	     4.472
  47.240	        27	    1200	     5.196
  47.260	        16	    1200	     4.000
  47.280	        33	    1200	     5.745
  47.300	        34	    1200	     5.831
  47.320	        26	    1200	     5.099
  47.340	        21	    1200	     4.583
  47.360	        29	    1200	     5.385
  47.380	        36	    1200	     6.000
  47.400	        30	    1200	     5.477
  47.420	        26	    1200	     5.099
  47.440	        23	    1200	     4.796
  47.460	        23	    1200	     4.796
  47.480	        16	    1200	     4.000
  47.500	        37	    1200	     6.083
  47.520	        28	    1200	     5.292
  47.540	        24	    1200	     4.899
  47.560	        27	    1200	     5.196
  47.580	        25	    1200	     5.000
  47.600	        27	    1200	     5.196
  47.620	        19	    1200	     4.359
  47.640	        21	    1200	     4.583
  47.660	        24	    1200	     4.899
  47.680	        32	    1200	     5.657
  47.700	        17	    1200	     4.123
  47.720	        34	    1200	     5.831
  47.740	         8	    1200	     2.828
  47.760	        21	    1200	     4.583
  47.780	        27	    1200	     5.196
  47.800	        24	    1200	     4.899
  47.820	        18	    1200	     4.243
  47.840	        20	    1200	     4.472
  47.860	        26	    1200	     5.099
  47.880	        21	    1200	     4.583
  47.900	        25	    1200	     5.000
  47.920	        19	    1200	     4.359
  47.940	        20	    1200	     4.472
  47.960	        21	    1200	     4.583
  47.980	        13	    1200	     3.606
  48.000	        20	    1200	     4.472
  48.020	        14	    1200	     3.742
  48.040	        21	    1200	     4.583
  48.060	        25	    1200	     5.000
  48.080	        17	    1200	     4.123
  48.100	        19	    1200	     4.359
  48.120	        33	    1200	     5.745
  48.140	        24	    1200	     4.899
  48.160	        22	    1200	     4.690
  48.180	        22	    1200	     4.690
  48.200	        26	    1200	     5.099
  48.220	        18	    1200	     4.243
  48.240	        13	    1200	     3.606
  48.260	        23	    1200	     4.796
  48.280	        21	    1200	     4.583
  48.300	        24	    1200	     4.899
  48.320	        24	    1200	     4.899
  48.340	        30	    1200	     5.477
  48.360	        18	    1200	     4.243
  48.380	        23	    1200	     4.796
  48.400	        21	    1200	     4.583
  48.420	        19	    1200	     4.359
  48.440	        21	    1200	     4.583
  48.460	        23	    1200	     4.796
  48.480	        26	    1200	     5.099
  48.500	        15	    1200	     3.873
  48.520	        20	    1200	     4.472
  48.540	        18	    1200	     4.243
  48.560	        18	    1200	     4.243
  48.580	        14	    1200	     3.742
  48.600	        17	    1200	     4.123
  48.620	        21	    1200	     4.583
  48.640	        13	    1200	     3.606
  48.660	        10	    1200	     3.162
  48.680	        15	    1200	     3.873
  48.700	        18	    1200	     4.243
  48.720	        11	    1200	     3.317
  48.740	        15	    1200	     3.873
  48.760	        12	    1200	     3.464
  48.780	        18	    1200	     4.243
  48.800	        18	    1200	     4.243
  48.820	        12	    1200	     3.464
  48.840	        25	    1200	     5.000
  48.860	        16	    1200	     4.000
  48.880	        13	    1200	     3.606
  48.900	         8	    1200	     2.828
  48.920	        16	    1200	     4.000
  48.940	        13	    1200	     3.606
  48.960	        19	    1200	     4.359
  48.980	        18	    1200	     4.243
  49.000	        21	    1200	     4.583
  49.020	        10	    1200	     3.162
  49.040	        10	    1200	     3.162
  49.060	        14	    1200	     3.742
  49.080	        19	    1200	     4.359
  49.100	        21	    1200	     4.583
  49.120	        17	    1200	     4.123
  49.140	        13	    1200	     3.606
  49.160	        14	    1200	     3.742
  49.180	        24	    1200	     4.899
  49.200	        11	    1200	     3.317
  49.220	        22	    1200	     4.690
  49.240	         9	    1200	     3.000
  49.260	        18	    1200	     4.243
  49.280	        12	    1200	     3.464
  49.300	        16	    1200	     4.000
  49.320	        17	    1200	     4.123
  49.340	        17	    1200	     4.123
  49.360	        19	    1200	     4.359
  49.380	        13	    1200	     3.606
  49.400	        13	    1200	     3.606
  49.420	        15	    1200	     3.873
  49.440	         8	    1200	     2.828
  49.460	        13	    1200	     3.606
  49.480	        13	    1200	     3.606
  49.500	         8	    1200	     2.828
  49.520	        14	    1200	     3.742
  49.540	        17	    1200	     4.123
  49.560	         9	    1200	     3.000
  49.580	        23	    1200	     4.796
  49.600	        16	    1200	     4.000
  49.620	        20	    1200	     4.472
  49.640	        11	    1200	     3.317
  49.660	        18	    1200	     4.243
  49.680	        16	    1200	     4.000
  49.700	        13	    1200	     3.606
  49.720	        14	    1200	     3.742
  49.740	        20	    1200	     4.472
  49.760	        15	    1200	     3.873
  49.780	         7	    1200	     2.646
  49.800	        14	    1200	     3.742
  49.820	        20	    1200	     4.472
  49.840	        15	    1200	     3.873
  49.860	        16	    1200	     4.000
  49.880	        20	    1200	     4.472
  49.900	        23	    1200	     4.796
  49.920	        15	    1200	     3.873
  49.940	        12	    1200	     3.464
  49.960	        14	    1200	     3.742
  49.980	        10	    1200	     3.162
  50.000	        14	    1200	     3.742
  50.020	        10	    1200	     3.162
  50.040	        14	    1200	     3.742
  50.060	        18	    1200	     4.243
  50.080	        13	    1200	     3.606
  50.100	         9	    1200	     3.000
  50.120	        16	    1200	     4.000
  50.140	        14	    1200	     3.742
  50.160	        11	    1200	     3.317
  50.180	        21	    1200	     4.583
  50.200	        17	    1200	     4.123
  50.220	        14	    1200	     3.742
  50.240	        14	    1200	     3.742
  50.260	         9	    1200	     3.000
  50.280	        14	    1200	     3.742
  50.300	        14	    1200	     3.742
  50.320	        22	    1200	     4.690
  50.340	         7	    1200	     2.646
  50.360	         9	    1200	     3.000
  50.380	        14	    1200	     3.742
  50.400	         6	    1200	     2.449
  50.420	        14	    1200	     3.742
  50.440	        18	    1200	     4.243
  50.460	         7	    1200	     2.646
  50.480	        12	    1200	     3.464
  50.500	        15	    1200	     3.873
  50.520	        10	    1200	     3.162
  50.540	        14	    1200	     3.742
  50.560	        16	    1200	     4.000
  50.580	        15	    1200	     3.873
  50.600	        28	    1200	     5.292
  50.620	        17	    1200	     4.123
  50.640	        18	    1200	     4.243
  50.660	        14	    1200	     3.742
  50.680	        13	    1200	     3.606
  50.700	        13	    1200	     3.606
  50.720	        12	    1200	     3.464
  50.740	        15	    1200	     3.873
  50.760	        17	    1200	     4.123
  50.780	        14	    1200	     3.742
  50.800	        16	    1200	     4.000
  50.820	         8	    1200	     2.828
  50.840	        13	    1200	     3.606
  50.860	        11	    1200	     3.317
  50.880	        15	    1200	     3.873
  50.900	        11	    1200	     3.317
  50.920	        15	    1200	     3.873
  50.940	        15	    1200	     3.873
  50.960	        20	    1200	     4.472
  50.980	        11	    1200	     3.317
  51.000	        24	    1200	     4.899
  51.020	        11	    1200	     3.317
  51.040	        18	    1200	     4.243
  51.060	        15	    1200	     3.873
  51.080	         6	    1200	     2.449
  51.100	        15	    1200	     3.873
  51.120	        10	    1200	     3.162
  51.140	        15	    1200	     3.873
  51.160	        26	    1200	     5.099
  51.180	        15	    1200	     3.873
  51.200	         9	    1200	     3.000
  51.220	        14	    1200	     3.742
  51.240	        21	    1200	     4.583
  51.260	        15	    1200	     3.873
  51.280	         9	    1200	     3.000
  51.300	        12	    1200	     3.464
  51.320	        15	    1200	     3.873
  51.340	        19	    1200	     4.359
  51.360	         9	    1200	     3.000
  51.380	        15	    1200	     3.873
  51.400	        22	    1200	     4.690
  51.420	        13	    1200	     3.606
  51.440	        20	    1200	     4.472
  51.460	        11	    1200	     3.317
  51.480	        17	    1200	     4.123
  51.500	        15	    1200	     3.873
  51.520	        21	    1200	     4.583
  51.540	        16	    1200	     4.000
  51.560	        20	    1200	     4.472
  51.580	        22	    1200	     4.690
  51.600	        13	    1200	     3.606
  51.620	        13	    1200	     3.606
  51.640	        22	    1200	     4.690
  51.660	        12	    1200	     3.464
  51.680	        24	    1200	     4.899
  51.700	        17	    1200	     4.123
  51.720	        19	    1200	     4.359
  51.740	        17	    1200	     4.123
  51.760	        18	    1200	     4.243
  51.780	        15	    1200	     3.873
  51.800	        17	    1200	     4.123
  51.820	        16	    1200	     4.000
  51.840	        12	    1200	     3.464
  51.860	        15	    1200	     3.873
  51.880	        18	    1200	     4.243
  51.900	        17	    1200	     4.123
  51.920	        24	    1200	     4.899
  51.940	        19	    1200	     4.359
  51.960	        16	    1200	     4.000
  51.980	        14	    1200	     3.742
  52.000	        16	    1200	     4.000
  52.020	        20	    1200	     4.472
  52.040	        25	    1200	     5.000
  52.060	        18	    1200	     4.243
  52.080	        14	    1200	     3.742
  52.100	        21	    1200	     4.583
  52.120	        19	    1200	     4.359
  52.140	        30	    1200	     5.477
  52.160	        30	    1200	     5.477
  52.180	        35	    1200	     5.916
  52.200	        27	    1200	     5.196
  52.220	        30	    1200	     5.477
  52.240	        29	    1200	     5.385
  52.260	        28	    1200	     5.292
  52.280	        34	    1200	     5.831
  52.300	        31	    1200	     5.568
  52.320	        34	    1200	     5.831
  52.340	        19	    1200	     4.359
  52.360	        33	    1200	     5.745
  52.380	        24	    1200	     4.899
  52.400	        27	    1200	     5.196
  52.420	        30	    1200	     5.477
  52.440	        33	    1200	     5.745
  52.460	        40	    1200	     6.325
  52.480	        24	    1200	     4.899
  52.500	        34	    1200	     5.831
  52.520	        35	    1200	     5.916
  52.540	        24	    1200	     4.899
  52.560	        36	    1200	     6.000
  52.580	        32	    1200	     5.657
  52.600	        19	    1200	     4.359
  52.620	        25	    1200	     5.000
  52.640	        20	    1200	     4.472
  52.660	        23	    1200	     4.796
  52.680	        21	    1200	     4.583
  52.700	        22	    1200	     4.690
  52.720	        17	    1200	     4.123
  52.740	        26	    1200	     5.099
  52.760	        13	    1200	     3.606
  52.780	        25	    1200	     5.000
  52.800	        24	    1200	     4.899
  52.820	        16	    1200	     4.000
  52.840	        20	    1200	     4.472
  52.860	        19	    1200	     4.359
  52.880	        21	    1200	     4.583
  52.900	        34	    1200	     5.831
  52.920	        17	    1200	     4.123
  52.940	        18	    1200	     4.243
  52.960	        14	    1200	     3.742
  52.980	        22	    1200	     4.690
  53.000	        21	    1200	     4.583
  53.020	        18	    1200	     4.243
  53.040	        20	    1200	     4.472
  53.060	        14	    1200	     3.742
  53.080	        27	    1200	     5.196
  53.100	        29	    1200	     5.385
  53.120	        19	    1200	     4.359
  53.140	        27	    1200	     5.196
  53.160	        35	    1200	     5.916
  53.180	        22	    1200	     4.690
  53.200	        35	    1200	     5.916
  53.220	        26	    1200	     5.099
  53.240	        29	    1200	     5.385
  53.260	        24	    1200	     4.899
  53.280	        28	    1200	     5.292
  53.300	        31	    1200	     5.568
  53.320	        22	    1200	     4.690
  53.340	        21	    1200	     4.583
  53.360	        27	    1200	     5.196
  53.380	        35	    1200	     5.916
  53.400	        32	    1200	     5.657
  53.420	        34	    1200	     5.831
  53.440	        35	    1200	     5.916
  53.460	        31	    1200	     5.568
  53.480	        29	    1200	     5.385
  53.500	        30	    1200	     5.477
  53.520	        35	    1200	     5.916
  53.540	        32	    1200	     5.657
  53.560	        28	    1200	     5.292
  53.580	        25	    1200	     5.000
  53.600	        33	    1200	     5.745
  53.620	        23	    1200	     4.796
  53.640	        36	    1200	     6.000
  53.660	        24	    1200	     4.899
  53.680	        24	    1200	     4.899
  53.700	        28	    1200	     5.292
  53.720	        28	    1200	     5.292
  53.740	        36	    1200	     6.000
  53.760	        30	    1200	     5.477
  53.780	        21	    1200	     4.583
  53.800	        27	    1200	     5.196
  53.820	        26	    1200	     5.099
  53.840	        29	    1200	     5.385
  53.860	        23	    1200	     4.796
  53.880	        29	    1200	     5.385
  53.900	        20	    1200	     4.472
  53.920	        29	    1200	     5.385
  53.940	        19	    1200	     4.359
  53.960	        27	    1200	     5.196
  53.980	        34	    1200	     5.831
  54.000	        23	    1200	     4.796
  54.020	        24	    1200	     4.899
  54.040	        23	    1200	     4.796
  54.060	        25	    1200	     5.000
  54.080	        25	    1200	     5.000
  54.100	        21	    1200	     4.583
  54.120	        16	    1200	     4.000
  54.140	        21	    1200	     4.583
  54.160	        18	    1200	     4.243
  54.180	        18	    1200	     4.243
  54.200	        19	    1200	     4.359
  54.220	        25	    1200	     5.000
  54.240	        12	    1200	     3.464
  54.260	        19	    1200	     4.359
  54.280	        17	    1200	     4.123
  54.300	        17	    1200	     4.123
  54.320	        15	    1200	     3.873
  54.340	        16	    1200	     4.000
  54.360	        22	    1200	     4.690
  54.380	        17	    1200	     4.123
  54.400	        26	    1200	     5.099
  54.420	        21	    1200	     4.583
  54.440	        28	    1200	     5.292
  54.460	        19	    1200	     4.359
  54.480	        14	    1200	     3.742
  54.500	        12	    1200	     3.464
  54.520	        24	    1200	     4.899
  54.540	        20	    1200	     4.472
  54.560	        17	    1200	     4.123
  54.580	        26	    1200	     5.099
  54.600	        26	    1200	     5.099
  54.620	        14	    1200	     3.742
  54.640	        19	    1200	     4.359
  54.660	        21	    1200	     4.583
  54.680	        21	    1200	     4.583
  54.700	        27	    1200	     5.196
  54.720	        13	    1200	     3.606
  54.740	        25	    1200	     5.000
  54.760	        15	    1200	     3.873
  54.780	        12	    1200	     3.464
  54.800	        17	    1200	     4.123
  54.820	        24	    1200	     4.899
  54.840	        26	    1200	     5.099
  54.860	        25	    1200	     5.000
  54.880	        17	    1200	     4.123
  54.900	        34	    1200	     5.831
  54.920	        13	    1200	     3.606
  54.940	        16	    1200	     4.000
  54.960	        22	    1200	     4.690
  54.980	        21	    1200	     4.583
  55.000	        22	    1200	     4.690
  55.020	        25	    1200	     5.000
  55.040	        18	    1200	     4.243
  55.060	        19	    1200	     4.359
  55.080	        22	    1200	     4.690
  55.100	        16	    1200	     4.000
  55.120	        23	    1200	     4.796
  55.140	        28	    1200	     5.292
  55.160	        19	    1200	     4.359
  55.180	        21	    1200	     4.583
  55.200	        16	    1200	     4.000
  55.220	        24	    1200	     4.899
  55.240	        22	    1200	     4.690
  55.260	        17	    1200	     4.123
  55.280	        17	    1200	     4.123
  55.300	        23	    1200	     4.796
  55.320	        20	    1200	     4.472
  55.340	        20	    1200	     4.472
  55.360	        26	    1200	     5.099
  55.380	        24	    1200	     4.899
  55.400	        22	    1200	     4.690
  55.420	        28	    1200	     5.292
  55.440	        24	    1200	     4.899
  55.460	        21	    1200	     4.583
  55.480	        27	    1200	     5.196
  55.500	        34	    1200	     5.831
  55.520	        29	    1200	     5.385
  55.540	        31	    1200	     5.568
  55.560	        28	    1200	     5.292
  55.580	        33	    1200	     5.745
  55.600	        33	    1200	     5.745
  55.620	        39	    1200	     6.245
  55.640	        38	    1200	     6.164
  55.660	        40	    1200	     6.325
  55.680	        32	    1200	     5.657
  55.700	        29	    1200	     5.385
  55.720	        39	    1200	     6.245
  55.740	        41	    1200	     6.403
  55.760	        37	    1200	     6.083
  55.780	        38	    1200	     6.164
  55.800	        45	    1200	     6.708
  55.820	        36	    1200	     6.000
  55.840	        44	    1200	     6.633
  55.860	        49	    1200	     7.000
  55.880	        51	    1200	     7.141
  55.900	        40	    1200	     6.325
  55.920	        48	    1200	     6.928
  55.940	        43	    1200	     6.557
  55.960	        49	    1200	     7.000
  55.980	        53	    1200	     7.280
  56.000	        53	    1200	     7.280
  56.020	        72	    1200	     8.485
  56.040	        59	    1200	     7.681
  56.060	        44	    1200	     6.633
  56.080	        69	    1200	     8.307
  56.100	        68	    1200	     8.246
  56.120	        86	    1200	     9.274
  56.140	        56	    1200	     7.483
  56.160	        60	    1200	     7.746
  56.180	        69	    1200	     8.307
  56.200	        77	    1200	     8.775
  56.220	        78	    1200	     8.832
  56.240	        56	    1200	     7.483
  56.260	        68	    1200	     8.246
  56.280	        69	    1200	     8.307
  56.300	        74	    1200	     8.602
  56.320	        57	    1200	     7.550
  56.340	        70	    1200	     8.367
  56.360	        76	    1200	     8.718
  56.380	        59	    1200	     7.681
  56.400	        60	    1200	     7.746
  56.420	        70	    1200	     8.367
  56.440	        57	    1200	     7.550
  56.460	        48	    1200	     6.928
  56.480	        65	    1200	     8.062
  56.500	        57	    1200	     7.550
  56.520	        44	    1200	     6.633
  56.540	        61	    1200	     7.810
  56.560	        63	    1200	     7.937
  56.580	        57	    1200	     7.550
  56.600	        48	    1200	     6.928
  56.620	        49	    1200	     7.000
  56.640	        54	    1200	     7.348
  56.660	        42	    1200	     6.481
  56.680	        41	    1200	     6.403
  56.700	        42	    1200	     6.481
  56.720	        45	    1200	     6.708
  56.740	        39	    1200	     6.245
  56.760	        46	    1200	     6.782
  56.780	        45	    1200	     6.708
  56.800	        40	    1200	     6.325
  56.820	        55	    1200	     7.416
  56.840	        68	    1200	     8.246
  56.860	        52	    1200	     7.211
  56.880	        55	    1200	     7.416
  56.900	        37	    1200	     6.083
  56.920	        51	    1200	     7.141
  56.940	        52	    1200	     7.211
  56.960	        62	    1200	     7.874
  56.980	        65	    1200	     8.062
  57.000	        68	    1200	     8.246
  57.020	        71	    1200	     8.426
  57.040	        64	    1200	     8.000
  57.060	        77	    1200	     8.775
  57.080	        94	    1200	     9.695
  57.100	        80	    1200	     8.944
  57.120	       103	    1200	    10.149
  57.140	       108	    1200	    10.392
  57.160	       120	    1200	    10.954
  57.180	       129	    1200	    11.358
  57.200	       162	    1200	    12.728
  57.220	       177	    1200	    13.304
  57.240	       182	    1200	    13.491
  57.260	       199	    1200	    14.107
  57.280	       232	    1200	    15.232
  57.300	       274	    1200	    16.553
  57.320	       294	    1200	    17.146
  57.340	       284	    1200	    16.852
  57.360	       312	    1200	    17.664
  57.380	       355	    1200	    18.841
  57.400	       334	    1200	    18.276
  57.420	       331	    1200	    18.193
  57.440	       353	    1200	    18.788
  57.460	       326	    1200	    18.055
  57.480	       388	    1200	    19.698
  57.500	       398	    1200	    19.950
  57.520	       416	    1200	    20.396
  57.540	       395	    1200	    19.875
  57.560	       389	    1200	    19.723
  57.580	       407	    1200	    20.174
  57.600	       449	    1200	    21.190
  57.620	       396	    1200	    19.900
  57.640	       386	    1200	    19.647
  57.660	       404	    1200	    20.100
  57.680	       339	    1200	    18.412
  57.700	       370	    1200	    19.235
  57.720	       357	    1200	    18.894
  57.740	       302	    1200	    17.378
  57.760	       289	    1200	    17.000
  57.780	       302	    1200	    17.378
  57.800	       240	    1200	    15.492
  57.820	       246	    1200	    15.684
  57.840	       236	    1200	    15.362
  57.860	       211	    1200	    14.526
  57.880	       217	    1200	    14.731
  57.900	       168	    1200	    12.961
  57.920	       168	    1200	    12.961
  57.940	       163	    1200	    12.767
  57.960	       129	    1200	    11.358
  57.980	       128	    1200	    11.314
  58.000	       121	    1200	    11.000
  58.020	       114	    1200	    10.677
  58.040	       104	    1200	    10.198
  58.060	       103	    1200	    10.149
  58.080	        94	    1200	     9.695
  58.100	        93	    1200	     9.644
  58.120	        85	    1200	     9.220
  58.140	        86	    1200	     9.274
  58.160	        55	    1200	     7.416
  58.180	        69	    1200	     8.307
  58.200	        76	    1200	     8.718
  58.220	        72	    1200	     8.485
  58.240	        68	    1200	     8.246
  58.260	        61	    1200	     7.810
  58.280	        51	    1200	     7.141
  58.300	        33	    1200	     5.745
  58.320	        52	    1200	     7.211
  58.340	        58	    1200	     7.616
  58.360	        69	    1200	     8.307
  58.380	        37	    1200	     6.083
  58.400	        34	    1200	     5.831
  58.420	        40	    1200	     6.325
  58.440	        35	    1200	     5.916
  58.460	        47	    1200	     6.856
  58.480	        45	    1200	     6.708
  58.500	        37	    1200	     6.083
  58.520	        40	    1200	     6.325
  58.540	        48	    1200	     6.928
  58.560	        43	    1200	     6.557
  58.580	        35	    1200	     5.916
  58.600	        35	    1200	     5.916
  58.620	        25	    1200	     5.000
  58.640	        23	    1200	     4.796
  58.660	        32	    1200	     5.657
  58.680	        26	    1200	     5.099
  58.700	        28	    1200	     5.292
  58.720	        42	    1200	     6.481
  58.740	        25	    1200	     5.000
  58.760	        34	    1200	     5.831
  58.780	        41	    1200	     6.403
  58.800	        21	    1200	     4.583
  58.820	        26	    1200	     5.099
  58.840	        20	    1200	     4.472
  58.860	        42	    1200	     6.481
  58.880	        23	    1200	     4.796
  58.900	        32	    1200	     5.657
  58.920	        24	    1200	     4.899
  58.940	        20	    1200	     4.472
  58.960	        24	    1200	     4.899
  58.980	        17	    1200	     4.123
  59.000	        21	    1200	     4.583
  59.020	        24	    1200	     4.899
  59.040	        33	    1200	     5.745
  59.060	        28	    1200	     5.292
  59.080	        18	    1200	     4.243
  59.100	        24	    1200	     4.899
  59.120	        24	    1200	     4.899
  59.140	        23	    1200	     4.796
  59.160	        26	    1200	     5.099
  59.180	        24	    1200	     4.899
  59.200	        18	    1200	     4.243
  59.220	        20	    1200	     4.472
  59.240	        25	    1200	     5.000
  59.260	        26	    1200	     5.099
  59.280	        30	    1200	     5.477
  59.300	        27	    1200	     5.196
  59.320	        27	    1200	     5.196
  59.340	        28	    1200	     5.292
  59.360	        26	    1200	     5.099
  59.380	        21	    1200	     4.583
  59.400	        15	    1200	     3.873
  59.420	        22	    1200	     4.690
  59.440	        18	    1200	     4.243
  59.460	        27	    1200	     5.196
  59.480	        28	    1200	     5.292
  59.500	        25	    1200	     5.000
  59.520	        36	    1200	     6.000
  59.540	        24	    1200	     4.899
  59.560	        11	    1200	     3.317
  59.580	        19	    1200	     4.359
  59.600	        27	    1200	     5.196
  59.620	        27	    1200	     5.196
  59.640	        19	    1200	     4.359
  59.660	        24	    1200	     4.899
  59.680	        25	    1200	     5.000
  59.700	        20	    1200	     4.472
  59.720	        25	    1200	     5.000
  59.740	        21	    1200	     4.583
  59.760	        32	    1200	     5.657
  59.780	        25	    1200	     5.000
  59.800	        19	    1200	     4.359
  59.820	        25	    1200	     5.000
  59.840	        31	    1200	     5.568
  59.860	        28	    1200	     5.292
  59.880	        25	    1200	     5.000
  59.900	        36	    1200	     6.000
  59.920	        26	    1200	     5.099
  59.940	        27	    1200	     5.196
  59.960	        22	    1200	     4.690
  59.980	        21	    1200	     4.583
  60.000	        18	    1200	     4.243
  60.020	        20	    1200	     4.472
  60.040	        20	    1200	     4.472
  60.060	        14	    1200	     3.742
  60.080	        25	    1200	     5.000
  60.100	        33	    1200	     5.745
  60.120	        20	    1200	     4.472
  60.140	        14	    1200	     3.742
  60.160	        24	    1200	     4.899
  60.180	        23	    1200	     4.796
  60.200	        15	    1200	     3.873
  60.220	        14	    1200	     3.742
  60.240	        17	    1200	     4.123
  60.260	        22	    1200	     4.690
  60.280	        21	    1200	     4.583
  60.300	        18	    1200	     4.243
  60.320	        28	    1200	     5.292
  60.340	        22	    1200	     4.690
  60.360	        20	    1200	     4.472
  60.380	        35	    1200	     5.916
  60.400	        27	    1200	     5.196
  60.420	        20	    1200	     4.472
  60.440	        19	    1200	     4.359
  60.460	        12	    1200	     3.464
  60.480	        23	    1200	     4.796
  60.500	        25	    1200	     5.000
  60.520	        16	    1200	     4.000
  60.540	        23	    1200	     4.796
  60.560	        24	    1200	     4.899
  60.580	        19	    1200	     4.359
  60.600	        21	    1200	     4.583
  60.620	        16	    1200	     4.000
  60.640	        17	    1200	     4.123
  60.660	        10	    1200	     3.162
  60.680	        16	    1200	     4.000
  60.700	        18	    1200	     4.243
  60.720	        15	    1200	     3.873
  60.740	        17	    1200	     4.123
  60.760	        12	    1200	     3.464
  60.780	        25	    1200	     5.000
  60.800	        15	    1200	     3.873
  60.820	        19	    1200	     4.359
  60.840	        20	    1200	     4.472
  60.860	        23	    1200	     4.796
  60.880	        14	    1200	     3.742
  60.900	        17	    1200	     4.123
  60.920	        22	    1200	     4.690
  60.940	        16	    1200	     4.000
  60.960	        19	    1200	     4.359
  60.980	        14	    1200	     3.742
  61.000	        17	    1200	     4.123
  61.020	        21	    1200	     4.583
  61.040	        23	    1200	     4.796
  61.060	        26	    1200	     5.099
  61.080	        18	    1200	     4.243
  61.100	        20	    1200	     4.472
  61.120	        12	    1200	     3.464
  61.140	        17	    1200	     4.123
  61.160	        19	    1200	     4.359
  61.180	        16	    1200	     4.000
  61.200	        24	    1200	     4.899
  61.220	        14	    1200	     3.742
  61.240	        19	    1200	     4.359
  61.260	        13	    1200	     3.606
  61.280	        18	    1200	     4.243
  61.300	        19	    1200	     4.359
  61.320	        14	    1200	     3.742
  61.340	        13	    1200	     3.606
  61.360	        17	    1200	     4.123
  61.380	        19	    1200	     4.359
  61.400	        18	    1200	     4.243
  61.420	        18	    1200	     4.243
  61.440	        15	    1200	     3.873
  61.460	        23	    1200	     4.796
  61.480	        21	    1200	     4.583
  61.500	        13	    1200	     3.606
  61.520	        13	    1200	     3.606
  61.540	        16	    1200	     4.000
  61.560	        20	    1200	     4.472
  61.580	        13	    1200	     3.606
  61.600	        15	    1200	     3.873
  61.620	        17	    1200	     4.123
  61.640	        19	    1200	     4.359
  61.660	        21	    1200	     4.583
  61.680	        16	    1200	     4.000
  61.700	        20	    1200	     4.472
  61.720	        24	    1200	     4.899
  61.740	        18	    1200	     4.243
  61.760	        19	    1200	     4.359
  61.780	        18	    1200	     4.243
  61.800	        21	    1200	     4.583
  61.820	        18	    1200	     4.243
  61.840	        15	    1200	     3.873
  61.860	        15	    1200	     3.873
  61.880	        14	    1200	     3.742
  61.900	        21	    1200	     4.583
  61.920	        17	    1200	     4.123
  61.940	        19	    1200	     4.359
  61.960	        18	    1200	     4.243
  61.980	        19	    1200	     4.359
  62.000	        15	    1200	     3.873
  62.020	        16	    1200	     4.000
  62.040	        16	    1200	     4.000
  62.060	        20	    1200	     4.472
  62.080	        14	    1200	     3.742
  62.100	        18	    1200	     4.243
  62.120	        16	    1200	     4.000
  62.140	        13	    1200	     3.606
  62.160	        16	    1200	     4.000
  62.180	        21	    1200	     4.583
  62.200	        20	    1200	     4.472
  62.220	        16	    1200	     4.000
  62.240	        24	    1200	     4.899
  62.260	        18	    1200	     4.243
  62.280	        18	    1200	     4.243
  62.300	        20	    1200	     4.472
  62.320	        18	    1200	     4.243
  62.340	        21	    1200	     4.583
  62.360	        19	    1200	     4.359
  62.380	        21	    1200	     4.583
  62.400	        13	    1200	     3.606
  62.420	        17	    1200	     4.123
  62.440	        22	    1200	     4.690
  62.460	        23	    1200	     4.796
  62.480	        16	    1200	     4.000
  62.500	        21	    1200	     4.583
  62.520	        12	    1200	     3.464
  62.540	        16	    1200	     4.000
  62.560	        19	    1200	     4.359
  62.580	        29	    1200	     5.385
  62.600	        13	    1200	     3.606
  62.620	        11	    1200	     3.317
  62.640	        14	    1200	     3.742
  62.660	        24	    1200	     4.899
  62.680	        13	    1200	     3.606
  62.700	        20	    1200	     4.472
  62.720	        15	    1200	     3.873
  62.740	        25	    1200	     5.000
  62.760	        15	    1200	     3.873
  62.780	        24	    1200	     4.899
  62.800	        17	    1200	     4.123
  62.820	        20	    1200	     4.472
  62.840	        16	    1200	     4.000
  62.860	        17	    1200	     4.123
  62.880	        19	    1200	     4.359
  62.900	        13	    1200	     3.606
  62.920	        13	    1200	     3.606
  62.940	        13	    1200	     3.606
  62.960	        20	    1200	     4.472
  62.980	        16	    1200	     4.000
  63.000	        18	    1200	     4.243
  63.020	        17	    1200	     4.123
  63.040	        22	    1200	     4.690
  63.060	        19	    1200	     4.359
  63.080	        14	    1200	     3.742
  63.100	        22	    1200	     4.690
  63.120	        17	    1200	     4.123
  63.140	        15	    1200	     3.873
  63.160	        23	    1200	     4.796
  63.180	        19	    1200	     4.359
  63.200	        12	    1200	     3.464
  63.220	        20	    1200	     4.472
  63.240	        10	    1200	     3.162
  63.260	        12	    1200	     3.464
  63.280	        16	    1200	     4.000
  63.300	        19	    1200	     4.359
  63.320	        15	    1200	     3.873
  63.340	        13	    1200	     3.606
  63.360	         6	    1200	     2.449
  63.380	        16	    1200	     4.000
  63.400	        15	    1200	     3.873
  63.420	        20	    1200	     4.472
  63.440	        14	    1200	     3.742
  63.460	         9	    1200	     3.000
  63.480	        19	    1200	     4.359
  63.500	        16	    1200	     4.000
  63.520	        11	    1200	     3.317
  63.540	        30	    1200	     5.477
  63.560	        15	    1200	     3.873
  63.580	        11	    1200	     3.317
  63.600	        26	    1200	     5.099
  63.620	        10	    1200	     3.162
  63.640	        23	    1200	     4.796
  63.660	        23	    1200	     4.796
  63.680	        17	    1200	     4.123
  63.700	        24	    1200	     4.899
  63.720	        23	    1200	     4.796
  63.740	        20	    1200	     4.472
  63.760	        15	    1200	     3.873
  63.780	        20	    1200	     4.472
  63.800	        22	    1200	     4.690
  63.820	        18	    1200	     4.243
  63.840	        20	    1200	     4.472
  63.860	        20	    1200	     4.472
  63.880	        23	    1200	     4.796
  63.900	        21	    1200	     4.583
  63.920	        29	    1200	     5.385
  63.940	        21	    1200	     4.583
  63.960	        22	    1200	     4.690
  63.980	        26	    1200	     5.099
  64.000	        30	    1200	     5.477
  64.020	        37	    1200	     6.083
  64.040	        27	    1200	     5.196
  64.060	        33	    1200	     5.745
  64.080	        23	    1200	     4.796
  64.100	        33	    1200	     5.745
  64.120	        26	    1200	     5.099
  64.140	        20	    1200	     4.472
  64.160	        19	    1200	     4.359
  64.180	        26	    1200	     5.099
  64.200	        30	    1200	     5.477
  64.220	        26	    1200	     5.099
  64.240	        19	    1200	     4.359
  64.260	        31	    1200	     5.568
  64.280	        24	    1200	     4.899
  64.300	        27	    1200	     5.196
  64.320	        24	    1200	     4.899
  64.340	        26	    1200	     5.099
  64.360	        25	    1200	     5.000
  64.380	        21	    1200	     4.583
  64.400	        31	    1200	     5.568
  64.420	        19	    1200	     4.359
  64.440	        24	    1200	     4.899
  64.460	        16	    1200	     4.000
  64.480	        28	    1200	     5.292
  64.500	        32	    1200	     5.657
  64.520	        20	    1200	     4.472
  64.540	        14	    1200	     3.742
  64.560	        19	    1200	     4.359
  64.580	        22	    1200	     4.690
  64.600	        19	    1200	     4.359
  64.620	        27	    1200	     5.196
  64.640	        24	    1200	     4.899
  64.660	        31	    1200	     5.568
  64.680	        30	    1200	     5.477
  64.700	        23	    1200	     4.796
  64.720	        27	    1200	     5.196
  64.740	        29	    1200	     5.385
  64.760	        33	    1200	     5.745
  64.780	        24	    1200	     4.899
  64.800	        34	    1200	     5.831
  64.820	        40	    1200	     6.325
  64.840	        39	    1200	     6.245
  64.860	        38	    1200	     6.164
  64.880	        45	    1200	     6.708
  64.900	        40	    1200	     6.325
  64.920	        40	    1200	     6.325
  64.940	        37	    1200	     6.083
  64.960	        40	    1200	     6.325
  64.980	        26	    1200	     5.099
  65.000	        32	    1200	     5.657
  65.020	        28	    1200	     5.292
  65.040	        40	    1200	     6.325
  65.060	        32	    1200	     5.657
  65.080	        39	    1200	     6.245
  65.100	        26	    1200	     5.099
  65.120	        20	    1200	     4.472
  65.140	        30	    1200	     5.477
  65.160	        28	    1200	     5.292
  65.180	        23	    1200	     4.796
  65.200	        25	    1200	     5.000
  65.220	        22	    1200	     4.690
  65.240	        25	    1200	     5.000
  65.260	        31	    1200	     5.568
  65.280	        16	    1200	     4.000
  65.300	        25	    1200	     5.000
  65.320	        16	    1200	     4.000
  65.340	        18	    1200	     4.243
  65.360	        20	    1200	     4.472
  65.380	        22	    1200	     4.690
  65.400	        19	    1200	     4.359
  65.420	        22	    1200	     4.690
  65.440	        24	    1200	     4.899
  65.460	        34	    1200	     5.831
  65.480	        24	    1200	     4.899
  65.500	        22	    1200	     4.690
  65.520	        20	    1200	     4.472
  65.540	        23	    1200	     4.796
  65.560	        19	    1200	     4.359
  65.580	        23	    1200	     4.796
  65.600	        28	    1200	     5.292
  65.620	        23	    1200	     4.796
  65.640	        15	    1200	     3.873
  65.660	        23	    1200	     4.796
  65.680	        25	    1200	     5.000
  65.700	        24	    1200	     4.899
  65.720	        23	    1200	     4.796
  65.740	        24	    1200	     4.899
  65.760	        27	    1200	     5.196
  65.780	        35	    1200	     5.916
  65.800	        19	    1200	     4.359
  65.820	        31	    1200	     5.568
  65.840	        26	    1200	     5.099
  65.860	        21	    1200	     4.583
  65.880	        32	    1200	     5.657
  65.900	        31	    1200	     5.568
  65.920	        37	    1200	     6.083
  65.940	        32	    1200	     5.657
  65.960	        39	    1200	     6.245
  65.980	        48	    1200	     6.928
  66.000	        50	    1200	     7.071
  66.020	        33	    1200	     5.745
  66.040	        37	    1200	     6.083
  66.060	        35	    1200	     5.916
  66.080	        46	    1200	     6.782
  66.100	        47	    1200	     6.856
  66.120	        36	    1200	     6.000
  66.140	        53	    1200	     7.280
  66.160	        63	    1200	     7.937
  66.180	        44	    1200	     6.633
  66.200	        46	    1200	     6.782
  66.220	        36	    1200	     6.000
  66.240	        51	    1200	     7.141
  66.260	        53	    1200	     7.280
  66.280	        50	    1200	     7.071
  66.300	        60	    1200	     7.746
  66.320	        51	    1200	     7.141
  66.340	        59	    1200	     7.681
  66.360	        62	    1200	     7.874
  66.380	        74	    1200	     8.602
  66.400	        79	    1200	     8.888
  66.420	        73	    1200	     8.544
  66.440	        56	    1200	     7.483
  66.460	        77	    1200	     8.775
  66.480	        92	    1200	     9.592
  66.500	        68	    1200	     8.246
  66.520	        81	    1200	     9.000
  66.540	        72	    1200	     8.485
  66.560	        55	    1200	     7.416
  66.580	        69	    1200	     8.307
  66.600	        46	    1200	     6.782
  66.620	        55	    1200	     7.416
  66.640	        72	    1200	     8.485
  66.660	        61	    1200	     7.810
  66.680	        53	    1200	     7.280
  66.700	        57	    1200	     7.550
  66.720	        63	    1200	     7.937
  66.740	        49	    1200	     7.000
  66.760	        47	    1200	     6.856
  66.780	        58	    1200	     7.616
  66.800	        32	    1200	     5.657
  66.820	        49	    1200	     7.000
  66.840	        49	    1200	     7.000
  66.860	        34	    1200	     5.831
  66.880	        42	    1200	     6.481
  66.900	        46	    1200	     6.782
  66.920	        25	    1200	     5.000
  66.940	        46	    1200	     6.782
  66.960	        38	    1200	     6.164
  66.980	        43	    1200	     6.557
  67.000	        45	    1200	     6.708
  67.020	        45	    1200	     6.708
  67.040	        38	    1200	     6.164
  67.060	        36	    1200	     6.000
  67.080	        36	    1200	     6.000
  67.100	        28	    1200	     5.292
  67.120	        44	    1200	     6.633
  67.140	        35	    1200	     5.916
  67.160	        43	    1200	     6.557
  67.180	        49	    1200	     7.000
  67.200	        52	    1200	     7.211
  67.220	        46	    1200	     6.782
  67.240	        64	    1200	     8.000
  67.260	        54	    1200	     7.348
  67.280	        62	    1200	     7.874
  67.300	        56	    1200	     7.483
  67.320	        47	    1200	     6.856
  67.340	        53	    1200	     7.280
  67.360	        85	    1200	     9.220
  67.380	        80	    1200	     8.944
  67.400	        71	    1200	     8.426
  67.420	        71	    1200	     8.426
  67.440	        78	    1200	     8.832
  67.460	        95	    1200	     9.747
  67.480	       108	    1200	    10.392
  67.500	        99	    1200	     9.950
  67.520	       130	    1200	    11.402
  67.540	       126	    1200	    11.225
  67.560	       140	    1200	    11.832
  67.580	       149	    1200	    12.207
  67.600	       168	    1200	    12.961
  67.620	       170	    1200	    13.038
  67.640	       165	    1200	    12.845
  67.660	       164	    1200	    12.806
  67.680	       170	    1200	    13.038
  67.700	       189	    1200	    13.748
  67.720	       192	    1200	    13.856
  67.740	       204	    1200	    14.283
  67.760	       209	    1200	    14.457
  67.780	       185	    1200	    13.601
  67.800	       213	    1200	    14.595
  67.820	       206	    1200	    14.353
  67.840	       192	    1200	    13.856
  67.860	       201	    1200	    14.177
  67.880	       199	    1200	    14.107
  67.900	       172	    1200	    13.115
  67.920	       180	    1200	    13.416
  67.940	       167	    1200	    12.923
  67.960	       146	    1200	    12.083
  67.980	       169	    1200	    13.000
  68.000	       134	    1200	    11.576
  68.020	       152	    1200	    12.329
  68.040	       120	    1200	    10.954
  68.060	       140	    1200	    11.832
  68.080	       124	    1200	    11.136
  68.100	        91	    1200	     9.539
  68.120	       105	    1200	    10.247
  68.140	        92	    1200	     9.592
  68.160	        79	    1200	     8.888
  68.180	        74	    1200	     8.602
  68.200	        76	    1200	     8.718
  68.220	        59	    1200	     7.681
  68.240	        76	    1200	     8.718
  68.260	        60	    1200	     7.746
  68.280	        63	    1200	     7.937
  68.300	        47	    1200	     6.856
  68.320	        51	    1200	     7.141
  68.340	        45	    1200	     6.708
  68.360	        43	    1200	     6.557
  68.380	        32	    1200	     5.657
  68.400	        45	    1200	     6.708
  68.420	        51	    1200	     7.141
  68.440	        27	    1200	     5.196
  68.460	        36	    1200	     6.000
  68.480	        48	    1200	     6.928
  68.500	        35	    1200	     5.916
  68.520	        38	    1200	     6.164
  68.540	        28	    1200	     5.292
  68.560	        26	    1200	     5.099
  68.580	        33	    1200	     5.745
  68.600	        33	    1200	     5.745
  68.620	        28	    1200	     5.292
  68.640	        28	    1200	     5.292
  68.660	        24	    1200	     4.899
  68.680	        30	    1200	     5.477
  68.700	        23	    1200	     4.796
  68.720	        27	    1200	     5.196
  68.740	        33	    1200	     5.745
  68.760	        24	    1200	     4.899
  68.780	        23	    1200	     4.796
  68.800	        19	    1200	     4.359
  68.820	        23	    1200	     4.796
  68.840	        26	    1200	     5.099
  68.860	        23	    1200	     4.796
  68.880	        19	    1200	     4.359
  68.900	        29	    1200	     5.385
  68.920	        17	    1200	     4.123
  68.940	        25	    1200	     5.000
  68.960	        18	    1200	     4.243
  68.980	        19	    1200	     4.359
  69.000	        17	    1200	     4.123
  69.020	        30	    1200	     5.477
  69.040	        26	    1200	     5.099
  69.060	        27	    1200	     5.196
  69.080	        19	    1200	     4.359
  69.100	        19	    1200	     4.359
  69.120	        11	    1200	     3.317
  69.140	        25	    1200	     5.000
  69.160	        12	    1200	     3.464
  69.180	        28	    1200	     5.292
  69.200	        11	    1200	     3.317
  69.220	        24	    1200	     4.899
  69.240	        19	    1200	     4.359
  69.260	        21	    1200	     4.583
  69.280	        17	    1200	     4.123
  69.300	        26	    1200	     5.099
  69.320	        20	    1200	     4.472
  69.340	        16	    1200	     4.000
  69.360	        14	    1200	     3.742
  69.380	        11	    1200	     3.317
  69.400	        19	    1200	     4.359
  69.420	        22	    1200	     4.690
  69.440	        20	    1200	     4.472
  69.460	        17	    1200	     4.123
  69.480	        11	    1200	     3.317
  69.500	        16	    1200	     4.000
  69.520	        13	    1200	     3.606
  69.540	        15	    1200	     3.873
  69.560	        18	    1200	     4.243
  69.580	        19	    1200	     4.359
  69.600	        21	    1200	     4.583
  69.620	        10	    1200	     3.162
  69.640	        18	    1200	     4.243
  69.660	        16	    1200	     4.000
  69.680	        18	    1200	     4.243
  69.700	        12	    1200	     3.464
  69.720	        28	    1200	     5.292
  69.740	        17	    1200	     4.123
  69.760	        12	    1200	     3.464
  69.780	        15	    1200	     3.873
  69.800	        23	    1200	     4.796
  69.820	        16	    1200	     4.000
  69.840	        19	    1200	     4.359
  69.860	        14	    1200	     3.742
  69.880	        20	    1200	     4.472
  69.900	         7	    1200	     2.646
  69.920	        16	    1200	     4.000
  69.940	        12	    1200	     3.464
  69.960	        17	    1200	     4.123
  69.980	        15	    1200	     3.873
  70.000	        22	    1200	     4.690
  70.020	        23	    1200	     4.796
  70.040	        18	    1200	     4.243
  70.060	        13	    1200	     3.606
  70.080	         9	    1200	     3.000
  70.100	        20	    1200	     4.472
  70.120	        10	    1200	     3.162
  70.140	        22	    1200	     4.690
  70.160	        11	    1200	     3.317
  70.180	        17	    1200	     4.123
  70.200	         9	    1200	     3.000
  70.220	        11	    1200	     3.317
  70.240	        18	    1200	     4.243
  70.260	        15	    1200	     3.873
  70.280	        20	    1200	     4.472
  70.300	        21	    1200	     4.583
  70.320	         9	    1200	     3.000
  70.340	        11	    1200	     3.317
  70.360	        18	    1200	     4.243
  70.380	        10	    1200	     3.162
  70.400	        14	    1200	     3.742
  70.420	        19	    1200	     4.359
  70.440	        22	    1200	     4.690
  70.460	        12	    1200	     3.464
  70.480	        16	    1200	     4.000
  70.500	        12	    1200	     3.464
  70.520	        17	    1200	     4.123
  70.540	        10	    1200	     3.162
  70.560	        15	    1200	     3.873
  70.580	        11	    1200	     3.317
  70.600	        12	    1200	     3.464
  70.620	         5	    1200	     2.236
  70.640	        12	    1200	     3.464
  70.660	        19	    1200	     4.359
  70.680	        17	    1200	     4.123
  70.700	        12	    1200	     3.464
  70.720	        11	    1200	     3.317
  70.740	        15	    1200	     3.873
  70.760	        11	    1200	     3.317
  70.780	        15	    1200	     3.873
  70.800	        14	    1200	     3.742
  70.820	         9	    1200	     3.000
  70.840	        15	    1200	     3.873
  70.860	        17	    1200	     4.123
  70.880	        21	    1200	     4.583
  70.900	         9	    1200	     3.000
  70.920	         9	    1200	     3.000
  70.940	        17	    1200	     4.123
  70.960	        22	    1200	     4.690
  70.980	        14	    1200	     3.742
  71.000	        18	    1200	     4.243
  71.020	        19	    1200	     4.359
  71.040	        22	    1200	     4.690
  71.060	        20	    1200	     4.472
  71.080	        12	    1200	     3.464
  71.100	        17	    1200	     4.123
  71.120	        15	    1200	     3.873
  71.140	        18	    1200	     4.243
  71.160	        10	    1200	     3.162
  71.180	        17	    1200	     4.123
  71.200	        16	    1200	     4.000
  71.220	        13	    1200	     3.606
  71.240	        18	    1200	     4.243
  71.260	        17	    1200	     4.123
  71.280	        13	    1200	     3.606
  71.300	        20	    1200	     4.472
  71.320	        13	    1200	     3.606
  71.340	        17	    1200	     4.123
  71.360	        19	    1200	     4.359
  71.380	        15	    1200	     3.873
  71.400	        18	    1200	     4.243
  71.420	        13	    1200	     3.606
  71.440	        15	    1200	     3.873
  71.460	        11	    1200	     3.317
  71.480	        15	    1200	     3.873
  71.500	        11	    1200	     3.317
  71.520	        16	    1200	     4.000
  71.540	        11	    1200	     3.317
  71.560	        11	    1200	     3.317
  71.580	        16	    1200	     4.000
  71.600	        14	    1200	     3.742
  71.620	        12	    1200	     3.464
  71.640	        17	    1200	     4.123
  71.660	        12	    1200	     3.464
  71.680	        21	    1200	     4.583
  71.700	        24	    1200	     4.899
  71.720	        11	    1200	     3.317
  71.740	        19	    1200	     4.359
  71.760	        10	    1200	     3.162
  71.780	        19	    1200	     4.359
  71.800	        13	    1200	     3.606
  71.820	         9	    1200	     3.000
  71.840	        21	    1200	     4.583
  71.860	        12	    1200	     3.464
  71.880	        19	    1200	     4.359
  71.900	        18	    1200	     4.243
  71.920	        16	    1200	     4.000
  71.940	        21	    1200	     4.583
  71.960	         8	    1200	     2.828
  71.980	        14	    1200	     3.742
  72.000	        16	    1200	     4.000
  72.020	        25	    1200	     5.000
  72.040	        23	    1200	     4.796
  72.060	        17	    1200	     4.123
  72.080	        17	    1200	     4.123
  72.100	        14	    1200	     3.742
  72.120	        16	    1200	     4.000
  72.140	        16	    1200	     4.000
  72.160	        15	    1200	     3.873
  72.180	        13	    1200	     3.606
  72.200	        20	    1200	     4.472
  72.220	        18	    1200	     4.243
  72.240	        20	    1200	     4.472
  72.260	        18	    1200	     4.243
  72.280	        15	    1200	     3.873
  72.300	        30	    1200	     5.477
  72.320	        28	    1200	     5.292
  72.340	        17	    1200	     4.123
  72.360	        16	    1200	     4.000
  72.380	        18	    1200	     4.243
  72.400	        21	    1200	     4.583
  72.420	        25	    1200	     5.000
  72.440	        19	    1200	     4.359
  72.460	        26	    1200	     5.099
  72.480	        20	    1200	     4.472
  72.500	        19	    1200	     4.359
  72.520	        36	    1200	     6.000
  72.540	        28	    1200	     5.292
  72.560	        30	    1200	     5.477
  72.580	        14	    1200	     3.742
  72.600	        16	    1200	     4.000
  72.620	        21	    1200	     4.583
  72.640	        23	    1200	     4.796
  72.660	        25	    1200	     5.000
  72.680	        30	    1200	     5.477
  72.700	        23	    1200	     4.796
  72.720	        13	    1200	     3.606
  72.740	        20	    1200	     4.472
  72.760	        21	    1200	     4.583
  72.780	        22	    1200	     4.690
  72.800	        21	    1200	     4.583
  72.820	        17	    1200	     4.123
  72.840	        16	    1200	     4.000
  72.860	        23	    1200	     4.796
  72.880	        16	    1200	     4.000
  72.900	        27	    1200	     5.196
  72.920	        21	    1200	     4.583
  72.940	        14	    1200	     3.742
  72.960	        23	    1200	     4.796
  72.980	        24	    1200	     4.899
  73.000	        16	    1200	     4.000
  73.020	        26	    1200	     5.099
  73.040	        19	    1200	     4.359
  73.060	        26	    1200	     5.099
  73.080	        23	    1200	     4.796
  73.100	        15	    1200	     3.873
  73.120	        18	    1200	     4.243
  73.140	        18	    1200	     4.243
  73.160	        21	    1200	     4.583
  73.180	        22	    1200	     4.690
  73.200	        31	    1200	     5.568
  73.220	        24	    1200	     4.899
  73.240	        29	    1200	     5.385
  73.260	        19	    1200	     4.359
  73.280	        29	    1200	     5.385
  73.300	        25	    1200	     5.000
  73.320	        23	    1200	     4.796
  73.340	        27	    1200	     5.196
  73.360	        20	    1200	     4.472
  73.380	        17	    1200	     4.123
  73.400	        20	    1200	     4.472
  73.420	        27	    1200	     5.196
  73.440	        28	    1200	     5.292
  73.460	        21	    1200	     4.583
  73.480	        27	    1200	     5.196
  73.500	        24	    1200	     4.899
  73.520	        22	    1200	     4.690
  73.540	        25	    1200	     5.000
  73.560	        27	    1200	     5.196
  73.580	        26	    1200	     5.099
  73.600	        36	    1200	     6.000
  73.620	        28	    1200	     5.292
  73.640	        33	    1200	     5.745
  73.660	        30	    1200	     5.477
  73.680	        39	    1200	     6.245
  73.700	        25	    1200	     5.000
  73.720	        28	    1200	     5.292
  73.740	        19	    1200	     4.359
  73.760	        25	    1200	     5.000
  73.780	        30	    1200	     5.477
  73.800	        19	    1200	     4.359
  73.820	        41	    1200	     6.403
  73.840	        38	    1200	     6.164
  73.860	        30	    1200	     5.477
  73.880	        28	    1200	     5.292
  73.900	        26	    1200	     5.099
  73.920	        24	    1200	     4.899
  73.940	        28	    1200	     5.292
  73.960	        31	    1200	     5.568
  73.980	        36	    1200	     6.000
  74.000	        23	    1200	     4.796
  74.020	        29	    1200	     5.385
  74.040	        30	    1200	     5.477
  74.060	        27	    1200	     5.196
  74.080	        36	    1200	     6.000
  74.100	        35	    1200	     5.916
  74.120	        37	    1200	     6.083
  74.140	        24	    1200	     4.899
  74.160	        18	    1200	     4.243
  74.180	        23	    1200	     4.796
  74.200	        24	    1200	     4.899
  74.220	        26	    1200	     5.099
  74.240	        24	    1200	     4.899
  74.260	        18	    1200	     4.243
  74.280	        35	    1200	     5.916
  74.300	        28	    1200	     5.292
  74.320	        29	    1200	     5.385
  74.340	        25	    1200	     5.000
  74.360	        30	    1200	     5.477
  74.380	        22	    1200	     4.690
  74.400	        23	    1200	     4.796
  74.420	        29	    1200	     5.385
  74.440	        27	    1200	     5.196
  74.460	        22	    1200	     4.690
  74.480	        25	    1200	     5.000
  74.500	        31	    1200	     5.568
  74.520	        28	    1200	     5.292
  74.540	        26	    1200	     5.099
  74.560	        17	    1200	     4.123
  74.580	        25	    1200	     5.000
  74.600	        26	    1200	     5.099
  74.620	        23	    1200	     4.796
  74.640	        16	    1200	     4.000
  74.660	        21	    1200	     4.583
  74.680	        26	    1200	     5.099
  74.700	        22	    1200	     4.690
  74.720	        21	    1200	     4.583
  74.740	        19	    1200	     4.359
  74.760	        15	    1200	     3.873
  74.780	        20	    1200	     4.472
  74.800	        18	    1200	     4.243
  74.820	        20	    1200	     4.472
  74.840	        24	    1200	     4.899
  74.860	        17	    1200	     4.123
  74.880	        11	    1200	     3.317
  74.900	        21	    1200	     4.583
  74.920	        20	    1200	     4.472
  74.940	        16	    1200	     4.000
  74.960	        20	    1200	     4.472
  74.980	        18	    1200	     4.243
  75.000	        10	    1200	     3.162
  75.020	        23	    1200	     4.796
  75.040	        15	    1200	     3.873
  75.060	        17	    1200	     4.123
  75.080	        21	    1200	     4.583
  75.100	        16	    1200	     4.000
  75.120	        21	    1200	     4.583
  75.140	        18	    1200	     4.243
  75.160	        16	    1200	     4.000
  75.180	        21	    1200	     4.583
  75.200	        22	    1200	     4.690
  75.220	        21	    1200	     4.583
  75.240	        19	    1200	     4.359
  75.260	        14	    1200	     3.742
  75.280	        29	    1200	     5.385
  75.300	        13	    1200	     3.606
  75.320	        15	    1200	     3.873
  75.340	        16	    1200	     4.000
  75.360	        13	    1200	     3.606
  75.380	        12	    1200	     3.464
  75.400	        20	    1200	     4.472
  75.420	        16	    1200	     4.000
  75.440	        13	    1200	     3.606
  75.460	        17	    1200	     4.123
  75.480	        18	    1200	     4.243
  75.500	        14	    1200	     3.742
  75.520	        28	    1200	     5.292
  75.540	        24	    1200	     4.899
  75.560	        18	    1200	     4.243
  75.580	        11	    1200	     3.317
  75.600	        21	    1200	     4.583
  75.620	        18	    1200	     4.243
  75.640	        26	    1200	     5.099
  75.660	        25	    1200	     5.000
  75.680	        20	    1200	     4.472
  75.700	        13	    1200	     3.606
  75.720	        19	    1200	     4.359
  75.740	        22	    1200	     4.690
  75.760	        26	    1200	     5.099
  75.780	        19	    1200	     4.359
  75.800	        22	    1200	     4.690
  75.820	        33	    1200	     5.745
  75.840	        27	    1200	     5.196
  75.860	        25	    1200	     5.000
  75.880	        16	    1200	     4.000
  75.900	        24	    1200	     4.899
  75.920	        23	    1200	     4.796
  75.940	        17	    1200	     4.123
  75.960	        20	    1200	     4.472
  75.980	        26	    1200	     5.099
  76.000	        26	    1200	     5.099
  76.020	        28	    1200	     5.292
  76.040	        16	    1200	     4.000
  76.060	        21	    1200	     4.583
  76.080	        30	    1200	     5.477
  76.100	        25	    1200	     5.000
  76.120	        24	    1200	     4.899
  76.140	        27	    1200	     5.196
  76.160	        33	    1200	     5.745
  76.180	        23	    1200	     4.796
  76.200	        27	    1200	     5.196
  76.220	        29	    1200	     5.385
  76.240	        26	    1200	     5.099
  76.260	        21	    1200	     4.583
  76.280	        22	    1200	     4.690
  76.300	        16	    1200	     4.000
  76.320	        17	    1200	     4.123
  76.340	        26	    1200	     5.099
  76.360	        24	    1200	     4.899
  76.380	        29	    1200	     5.385
  76.400	        26	    1200	     5.099
  76.420	        38	    1200	     6.164
  76.440	        34	    1200	     5.831
  76.460	        34	    1200	     5.831
  76.480	        25	    1200	     5.000
  76.500	        35	    1200	     5.916
  76.520	        57	    1200	     7.550
  76.540	        45	    1200	     6.708
  76.560	        46	    1200	     6.782
  76.580	        50	    1200	     7.071
  76.600	        42	    1200	     6.481
  76.620	        58	    1200	     7.616
  76.640	        52	    1200	     7.211
  76.660	        60	    1200	     7.746
  76.680	        54	    1200	     7.348
  76.700	        53	    1200	     7.280
  76.720	        77	    1200	     8.775
  76.740	        91	    1200	     9.539
  76.760	        80	    1200	     8.944
  76.780	        92	    1200	     9.592
  76.800	       126	    1200	    11.225
  76.820	       118	    1200	    10.863
  76.840	       101	    1200	    10.050
  76.860	       120	    1200	    10.954
  76.880	       130	    1200	    11.402
  76.900	       110	    1200	    10.488
  76.920	       142	    1200	    11.916
  76.940	       140	    1200	    11.832
  76.960	       144	    1200	    12.000
  76.980	       168	    1200	    12.961
  77.000	       165	    1200	    12.845
  77.020	       161	    1200	    12.689
  77.040	       134	    1200	    11.576
  77.060	       146	    1200	    12.083
  77.080	       154	    1200	    12.410
  77.100	       144	    1200	    12.000
  77.120	       154	    1200	    12.410
  77.140	       168	    1200	    12.961
  77.160	       185	    1200	    13.601
  77.180	       172	    1200	    13.115
  77.200	       141	    1200	    11.874
  77.220	       177	    1200	    13.304
  77.240	       185	    1200	    13.601
  77.260	       136	    1200	    11.662
  77.280	       147	    1200	    12.124
  77.300	       149	    1200	    12.207
  77.320	       127	    1200	    11.269
  77.340	       164	    1200	    12.806
  77.360	       151	    1200	    12.288
  77.380	       125	    1200	    11.180
  77.400	       134	    1200	    11.576
  77.420	        93	    1200	     9.644
  77.440	       120	    1200	    10.954
  77.460	        99	    1200	     9.950
  77.480	       100	    1200	    10.000
  77.500	       101	    1200	    10.050
  77.520	        91	    1200	     9.539
  77.540	        72	    1200	     8.485
  77.560	        68	    1200	     8.246
  77.580	        83	    1200	     9.110
  77.600	        65	    1200	     8.062
  77.620	        70	    1200	     8.367
  77.640	        74	    1200	     8.602
  77.660	        53	    1200	     7.280
  77.680	        68	    1200	     8.246
  77.700	        70	    1200	     8.367
  77.720	        47	    1200	     6.856
  77.740	        53	    1200	     7.280
  77.760	        56	    1200	     7.483
  77.780	        55	    1200	     7.416
  77.800	        36	    1200	     6.000
  77.820	        41	    1200	     6.403
  77.840	        39	    1200	     6.245
  77.860	        33	    1200	     5.745
  77.880	        44	    1200	     6.633
  77.900	        30	    1200	     5.477
  77.920	        28	    1200	     5.292
  77.940	        30	    1200	     5.477
  77.960	        29	    1200	     5.385
  77.980	        35	    1200	     5.916
  78.000	        35	    1200	     5.916
  78.020	        32	    1200	     5.657
  78.040	        47	    1200	     6.856
  78.060	        29	    1200	     5.385
  78.080	        18	    1200	     4.243
  78.100	        29	    1200	     5.385
  78.120	        21	    1200	     4.583
  78.140	        27	    1200	     5.196
  78.160	        31	    1200	     5.568
  78.180	        24	    1200	     4.899
  78.200	        24	    1200	     4.899
  78.220	        21	    1200	     4.583
  78.240	        26	    1200	     5.099
  78.260	        29	    1200	     5.385
  78.280	        21	    1200	     4.583
  78.300	        32	    1200	     5.657
  78.320	        13	    1200	     3.606
  78.340	        25	    1200	     5.000
  78.360	        25	    1200	     5.000
  78.380	        27	    1200	     5.196
  78.400	        26	    1200	     5.099
  78.420	        23	    1200	     4.796
  78.440	        25	    1200	     5.000
  78.460	        25	    1200	     5.000
  78.480	        20	    1200	     4.472
  78.500	        20	    1200	     4.472
  78.520	        20	    1200	     4.472
  78.540	        28	    1200	     5.292
  78.560	        19	    1200	     4.359
  78.580	        16	    1200	     4.000
  78.600	        20	    1200	     4.472
  78.620	        17	    1200	     4.123
  78.640	        23	    1200	     4.796
  78.660	        16	    1200	     4.000
  78.680	        16	    1200	     4.000
  78.700	        15	    1200	     3.873
  78.720	        19	    1200	     4.359
  78.740	        17	    1200	     4.123
  78.760	        14	    1200	     3.742
  78.780	        25	    1200	     5.000
  78.800	        26	    1200	     5.099
  78.820	        27	    1200	     5.196
  78.840	        20	    1200	     4.472
  78.860	        10	    1200	     3.162
  78.880	        18	    1200	     4.243
  78.900	        21	    1200	     4.583
  78.920	        20	    1200	     4.472
  78.940	        14	    1200	     3.742
  78.960	        30	    1200	     5.477
  78.980	        24	    1200	     4.899
  79.000	        19	    1200	     4.359
  79.020	        16	    1200	     4.000
  79.040	        18	    1200	     4.243
  79.060	        14	    1200	     3.742
  79.080	        16	    1200	     4.000
  79.100	        18	    1200	     4.243
  79.120	        20	    1200	     4.472
  79.140	        27	    1200	     5.196
  79.160	        21	    1200	     4.583
  79.180	        23	    1200	     4.796
  79.200	        20	    1200	     4.472
  79.220	        16	    1200	     4.000
  79.240	        25	    1200	     5.000
  79.260	        12	    1200	     3.464
  79.280	        27	    1200	     5.196
  79.300	        18	    1200	     4.243
  79.320	        26	    1200	     5.099
  79.340	        17	    1200	     4.123
  79.360	        18	    1200	     4.243
  79.380	        21	    1200	     4.583
  79.400	        16	    1200	     4.000
  79.420	        25	    1200	     5.000
  79.440	        25	    1200	     5.000
  79.460	        32	    1200	     5.657
  79.480	        16	    1200	     4.000
  79.500	        18	    1200	     4.243
  79.520	        14	    1200	     3.742
  79.540	        28	    1200	     5.292
  79.560	        18	    1200	     4.243
  79.580	        27	    1200	     5.196
  79.600	        13	    1200	     3.606
  79.620	        17	    1200	     4.123
  79.640	        14	    1200	     3.742
  79.660	        15	    1200	     3.873
  79.680	        15	    1200	     3.873
  79.700	        21	    1200	     4.583
  79.720	        20	    1200	     4.472
  79.740	        12	    1200	     3.464
  79.760	        22	    1200	     4.690
  79.780	        15	    1200	     3.873
  79.800	        16	    1200	     4.000
  79.820	        21	    1200	     4.583
  79.840	        14	    1200	     3.742
  79.860	        20	    1200	     4.472
  79.880	        13	    1200	     3.606
  79.900	        17	    1200	     4.123
  79.920	        23	    1200	     4.796
  79.940	        22	    1200	     4.690
  79.960	        19	    1200	     4.359
  79.980	        18	    1200	     4.243
  80.000	         9	    1200	     3.000
  80.020	        14	    1200	     3.742
  80.040	        15	    1200	     3.873
  80.060	        12	    1200	     3.464
  80.080	        19	    1200	     4.359
  80.100	        12	    1200	     3.464
  80.120	         7	    1200	     2.646
  80.140	        12	    1200	     3.464
  80.160	        18	    1200	     4.243
  80.180	        17	    1200	     4.123
  80.200	        20	    1200	     4.472
  80.220	        20	    1200	     4.472
  80.240	        14	    1200	     3.742
  80.260	        21	    1200	     4.583
  80.280	        22	    1200	     4.690
  80.300	        14	    1200	     3.742
  80.320	        17	    1200	     4.123
  80.340	        10	    1200	     3.162
  80.360	        25	    1200	     5.000
  80.380	        25	    1200	     5.000
  80.400	        18	    1200	     4.243
  80.420	        17	    1200	     4.123
  80.440	        24	    1200	     4.899
  80.460	        31	    1200	     5.568
  80.480	        19	    1200	     4.359
  80.500	        22	    1200	     4.690
  80.520	        19	    1200	     4.359
  80.540	        16	    1200	     4.000
  80.560	        15	    1200	     3.873
  80.580	        18	    1200	     4.243
  80.600	        15	    1200	     3.873
  80.620	        19	    1200	     4.359
  80.640	        24	    1200	     4.899
  80.660	        13	    1200	     3.606
  80.680	        16	    1200	     4.000
  80.700	        25	    1200	     5.000
  80.720	        23	    1200	     4.796
  80.740	        19	    1200	     4.359
  80.760	        19	    1200	     4.359
  80.780	        18	    1200	     4.243
  80.800	        20	    1200	     4.472
  80.820	        17	    1200	     4.123
  80.840	        21	    1200	     4.583
  80.860	        22	    1200	     4.690
  80.880	        16	    1200	     4.000
  80.900	        17	    1200	     4.123
  80.920	        21	    1200	     4.583
  80.940	        23	    1200	     4.796
  80.960	        26	    1200	     5.099
  80.980	        16	    1200	     4.000
  81.000	        23	    1200	     4.796
  81.020	        20	    1200	     4.472
  81.040	        16	    1200	     4.000
  81.060	        24	    1200	     4.899
  81.080	        14	    1200	     3.742
  81.100	        24	    1200	     4.899
  81.120	        25	    1200	     5.000
  81.140	        23	    1200	     4.796
  81.160	        18	    1200	     4.243
  81.180	        20	    1200	     4.472
  81.200	        15	    1200	     3.873
  81.220	        20	    1200	     4.472
  81.240	        27	    1200	     5.196
  81.260	        21	    1200	     4.583
  81.280	        27	    1200	     5.196
  81.300	        25	    1200	     5.000
  81.320	        33	    1200	     5.745
  81.340	        37	    1200	     6.083
  81.360	        23	    1200	     4.796
  81.380	        24	    1200	     4.899
  81.400	        32	    1200	     5.657
  81.420	        30	    1200	     5.477
  81.440	        33	    1200	     5.745
  81.460	        36	    1200	     6.000
  81.480	        39	    1200	     6.245
  81.500	        34	    1200	     5.831
  81.520	        31	    1200	     5.568
  81.540	        46	    1200	     6.782
  81.560	        51	    1200	     7.141
  81.580	        55	    1200	     7.416
  81.600	        46	    1200	     6.782
  81.620	        34	    1200	     5.831
  81.640	        40	    1200	     6.325
  81.660	        33	    1200	     5.745
  81.680	        49	    1200	     7.000
  81.700	        41	    1200	     6.403
  81.720	        46	    1200	     6.782
  81.740	        33	    1200	     5.745
  81.760	        28	    1200	     5.292
  81.780	        37	    1200	     6.083
  81.800	        31	    1200	     5.568
  81.820	        44	    1200	     6.633
  81.840	        36	    1200	     6.000
  81.860	        29	    1200	     5.385
  81.880	        41	    1200	     6.403
  81.900	        38	    1200	     6.164
  81.920	        41	    1200	     6.403
  81.940	        43	    1200	     6.557
  81.960	        35	    1200	     5.916
  81.980	        42	    1200	     6.481
  82.000	        51	    1200	     7.141
  82.020	        50	    1200	     7.071
  82.040	        55	    1200	     7.416
  82.060	        45	    1200	     6.708
  82.080	        52	    1200	     7.211
  82.100	        55	    1200	     7.416
  82.120	        51	    1200	     7.141
  82.140	        50	    1200	     7.071
  82.160	        56	    1200	     7.483
  82.180	        60	    1200	     7.746
  82.200	        54	    1200	     7.348
  82.220	        82	    1200	     9.055
  82.240	        68	    1200	     8.246
  82.260	        63	    1200	     7.937
  82.280	        64	    1200	     8.000
  82.300	        67	    1200	     8.185
  82.320	        67	    1200	     8.185
  82.340	        50	    1200	     7.071
  82.360	        52	    1200	     7.211
  82.380	        63	    1200	     7.937
  82.400	        61	    1200	     7.810
  82.420	        50	    1200	     7.071
  82.440	        65	    1200	     8.062
  82.460	        44	    1200	     6.633
  82.480	        58	    1200	     7.616
  82.500	        51	    1200	     7.141
  82.520	        50	    1200	     7.071
  82.540	        57	    1200	     7.550
  82.560	        53	    1200	     7.280
  82.580	        72	    1200	     8.485
  82.600	        44	    1200	     6.633
  82.620	        38	    1200	     6.164
  82.640	        51	    1200	     7.141
  82.660	        51	    1200	     7.141
  82.680	        47	    1200	     6.856
  82.700	        56	    1200	     7.483
  82.720	        39	    1200	     6.245
  82.740	        48	    1200	     6.928
  82.760	        46	    1200	     6.782
  82.780	        53	    1200	     7.280
  82.800	        64	    1200	     8.000
  82.820	        30	    1200	     5.477
  82.840	        52	    1200	     7.211
  82.860	        47	    1200	     6.856
  82.880	        46	    1200	     6.782
  82.900	        39	    1200	     6.245
  82.920	        49	    1200	     7.000
  82.940	        45	    1200	     6.708
  82.960	        37	    1200	     6.083
  82.980	        41	    1200	     6.403
  83.000	        31	    1200	     5.568
  83.020	        33	    1200	     5.745
  83.040	        49	    1200	     7.000
  83.060	        42	    1200	     6.481
  83.080	        36	    1200	     6.000
  83.100	        28	    1200	     5.292
  83.120	        43	    1200	     6.557
  83.140	        35	    1200	     5.916
  83.160	        34	    1200	     5.831
  83.180	        18	    1200	     4.243
  83.200	        27	    1200	     5.196
  83.220	        28	    1200	     5.292
  83.240	        28	    1200	     5.292
  83.260	        33	    1200	     5.745
  83.280	        19	    1200	     4.359
  83.300	        20	    1200	     4.472
  83.320	        22	    1200	     4.690
  83.340	        28	    1200	     5.292
  83.360	        24	    1200	     4.899
  83.380	        35	    1200	     5.916
  83.400	        23	    1200	     4.796
  83.420	        31	    1200	     5.568
  83.440	        21	    1200	     4.583
  83.460	        27	    1200	     5.196
  83.480	        18	    1200	     4.243
  83.500	        24	    1200	     4.899
  83.520	        26	    1200	     5.099
  83.540	        25	    1200	     5.000
  83.560	        20	    1200	     4.472
  83.580	        29	    1200	     5.385
  83.600	        15	    1200	     3.873
  83.620	        27	    1200	     5.196
  83.640	        17	    1200	     4.123
  83.660	        24	    1200	     4.899
  83.680	        16	    1200	     4.000
  83.700	        15	    1200	     3.873
  83.720	        24	    1200	     4.899
  83.740	        24	    1200	     4.899
  83.760	        27	    1200	     5.196
  83.780	        28	    1200	     5.292
  83.800	        19	    1200	     4.359
  83.820	        24	    1200	     4.899
  83.840	        18	    1200	     4.243
  83.860	        23	    1200	     4.796
  83.880	        22	    1200	     4.690
  83.900	        16	    1200	     4.000
  83.920	        22	    1200	     4.690
  83.940	        16	    1200	     4.000
  83.960	        21	    1200	     4.583
  83.980	        26	    1200	     5.099
  84.000	        22	    1200	     4.690
  84.020	        14	    1200	     3.742
  84.040	        18	    1200	     4.243
  84.060	        18	    1200	     4.243
  84.080	        20	    1200	     4.472
  84.100	        22	    1200	     4.690
  84.120	        17	    1200	     4.123
  84.140	        20	    1200	     4.472
  84.160	        18	    1200	     4.243
  84.180	        24	    1200	     4.899
  84.200	        21	    1200	     4.583
  84.220	        23	    1200	     4.796
  84.240	        21	    1200	     4.583
  84.260	        22	    1200	     4.690
  84.280	        30	    1200	     5.477
  84.300	        16	    1200	     4.000
  84.320	        15	    1200	     3.873
  84.340	        27	    1200	     5.196
  84.360	        22	    1200	     4.690
  84.380	        34	    1200	     5.831
  84.400	        19	    1200	     4.359
  84.420	        18	    1200	     4.243
  84.440	        27	    1200	     5.196
  84.460	        27	    1200	     5.196
  84.480	        30	    1200	     5.477
  84.500	        26	    1200	     5.099
  84.520	        27	    1200	     5.196
  84.540	        37	    1200	     6.083
  84.560	        31	    1200	     5.568
  84.580	        25	    1200	     5.000
  84.600	        31	    1200	     5.568
  84.620	        28	    1200	     5.292
  84.640	        41	    1200	     6.403
  84.660	        26	    1200	     5.099
  84.680	        33	    1200	     5.745
  84.700	        28	    1200	     5.292
  84.720	        27	    1200	     5.196
  84.740	        32	    1200	     5.657
  84.760	        34	    1200	     5.831
  84.780	        39	    1200	     6.245
  84.800	        38	    1200	     6.164
  84.820	        38	    1200	     6.164
  84.840	        27	    1200	     5.196
  84.860	        30	    1200	     5.477
  84.880	        33	    1200	     5.745
  84.900	        33	    1200	     5.745
  84.920	        38	    1200	     6.164
  84.940	        30	    1200	     5.477
  84.960	        44	    1200	     6.633
  84.980	        47	    1200	     6.856
  85.000	        34	    1200	     5.831
  85.020	        46	    1200	     6.782
  85.040	        48	    1200	     6.928
  85.060	        59	    1200	     7.681
  85.080	        28	    1200	     5.292
  85.100	        44	    1200	     6.633
  85.120	        40	    1200	     6.325
  85.140	        36	    1200	     6.000
  85.160	        37	    1200	     6.083
  85.180	        38	    1200	     6.164
  85.200	        31	    1200	     5.568
  85.220	        30	    1200	     5.477
  85.240	        34	    1200	     5.831
  85.260	        29	    1200	     5.385
  85.280	        31	    1200	     5.568
  85.300	        27	    1200	     5.196
  85.320	        42	    1200	     6.481
  85.340	        43	    1200	     6.557
  85.360	        32	    1200	     5.657
  85.380	        43	    1200	     6.557
  85.400	        29	    1200	     5.385
  85.420	        24	    1200	     4.899
  85.440	        37	    1200	     6.083
  85.460	        39	    1200	     6.245
  85.480	        31	    1200	     5.568
  85.500	        21	    1200	     4.583
  85.520	        29	    1200	     5.385
  85.540	        36	    1200	     6.000
  85.560	        32	    1200	     5.657
  85.580	        33	    1200	     5.745
  85.600	        36	    1200	     6.000
  85.620	        24	    1200	     4.899
  85.640	        26	    1200	     5.099
  85.660	        28	    1200	     5.292
  85.680	        34	    1200	     5.831
  85.700	        31	    1200	     5.568
  85.720	        39	    1200	     6.245
  85.740	        35	    1200	     5.916
  85.760	        44	    1200	     6.633
  85.780	        38	    1200	     6.164
  85.800	        41	    1200	     6.403
  85.820	        52	    1200	     7.211
  85.840	        35	    1200	     5.916
  85.860	        47	    1200	     6.856
  85.880	        50	    1200	     7.071
  85.900	        48	    1200	     6.928
  85.920	        46	    1200	     6.782
  85.940	        59	    1200	     7.681
  85.960	        52	    1200	     7.211
  85.980	        46	    1200	     6.782
  86.000	        55	    1200	     7.416
  86.020	        48	    1200	     6.928
  86.040	        47	    1200	     6.856
  86.060	        44	    1200	     6.633
  86.080	        58	    1200	     7.616
  86.100	        47	    1200	     6.856
  86.120	        38	    1200	     6.164
  86.140	        60	    1200	     7.746
  86.160	        51	    1200	     7.141
  86.180	        46	    1200	     6.782
  86.200	        44	    1200	     6.633
  86.220	        26	    1200	     5.099
  86.240	        46	    1200	     6.782
  86.260	        50	    1200	     7.071
  86.280	        42	    1200	     6.481
  86.300	        48	    1200	     6.928
  86.320	        36	    1200	     6.000
  86.340	        42	    1200	     6.481
  86.360	        45	    1200	     6.708
  86.380	        37	    1200	     6.083
  86.400	        34	    1200	     5.831
  86.420	        44	    1200	     6.633
  86.440	        46	    1200	     6.782
  86.460	        40	    1200	     6.325
  86.480	        30	    1200	     5.477
  86.500	        35	    1200	     5.916
  86.520	        38	    1200	     6.164
  86.540	        27	    1200	     5.196
  86.560	        26	    1200	     5.099
  86.580	        34	    1200	     5.831
  86.600	        22	    1200	     4.690
  86.620	        33	    1200	     5.745
  86.640	        29	    1200	     5.385
  86.660	        23	    1200	     4.796
  86.680	        30	    1200	     5.477
  86.700	        25	    1200	     5.000
  86.720	        26	    1200	     5.099
  86.740	        26	    1200	     5.099
  86.760	        16	    1200	     4.000
  86.780	        13	    1200	     3.606
  86.800	        21	    1200	     4.583
  86.820	        20	    1200	     4.472
  86.840	        23	    1200	     4.796
  86.860	        17	    1200	     4.123
  86.880	        22	    1200	     4.690
  86.900	        17	    1200	     4.123
  86.920	        21	    1200	     4.583
  86.940	        21	    1200	     4.583
  86.960	        21	    1200	     4.583
  86.980	        19	    1200	     4.359
  87.000	        18	    1200	     4.243
  87.020	        24	    1200	     4.899
  87.040	        12	    1200	     3.464
  87.060	        16	    1200	     4.000
  87.080	        19	    1200	     4.359
  87.100	        14	    1200	     3.742
  87.120	        21	    1200	     4.583
  87.140	        16	    1200	     4.000
  87.160	        20	    1200	     4.472
  87.180	        20	    1200	     4.472
  87.200	        23	    1200	     4.796
  87.220	        14	    1200	     3.742
  87.240	        17	    1200	     4.123
  87.260	        21	    1200	     4.583
  87.280	        19	    1200	     4.359
  87.300	        19	    1200	     4.359
  87.320	        17	    1200	     4.123
  87.340	        15	    1200	     3.873
  87.360	        14	    1200	     3.742
  87.380	        12	    1200	     3.464
  87.400	        14	    1200	     3.742
  87.420	        19	    1200	     4.359
  87.440	        19	    1200	     4.359
  87.460	        15	    1200	     3.873
  87.480	        11	    1200	     3.317
  87.500	        23	    1200	     4.796
  87.520	        20	    1200	     4.472
  87.540	        12	    1200	     3.464
  87.560	        17	    1200	     4.123
  87.580	        22	    1200	     4.690
  87.600	        18	    1200	     4.243
  87.620	        20	    1200	     4.472
  87.640	        18	    1200	     4.243
  87.660	        13	    1200	     3.606
  87.680	        16	    1200	     4.000
  87.700	        18	    1200	     4.243
  87.720	        21	    1200	     4.583
  87.740	        23	    1200	     4.796
  87.760	        16	    1200	     4.000
  87.780	        12	    1200	     3.464
  87.800	        18	    1200	     4.243
  87.820	        15	    1200	     3.873
  87.840	        15	    1200	     3.873
  87.860	        20	    1200	     4.472
  87.880	        18	    1200	     4.243
  87.900	        20	    1200	     4.472
  87.920	        15	    1200	     3.873
  87.940	        15	    1200	     3.873
  87.960	        12	    1200	     3.464
  87.980	        18	    1200	     4.243
  88.000	        16	    1200	     4.000
  88.020	        11	    1200	     3.317
  88.040	        19	    1200	     4.359
  88.060	        14	    1200	     3.742
  88.080	        18	    1200	     4.243
  88.100	        15	    1200	     3.873
  88.120	        14	    1200	     3.742
  88.140	        11	    1200	     3.317
  88.160	        16	    1200	     4.000
  88.180	        18	    1200	     4.243
  88.200	        15	    1200	     3.873
  88.220	        15	    1200	     3.873
  88.240	        18	    1200	     4.243
  88.260	        24	    1200	     4.899
  88.280	        17	    1200	     4.123
  88.300	         8	    1200	     2.828
  88.320	        19	    1200	     4.359
  88.340	        13	    1200	     3.606
  88.360	        22	    1200	     4.690
  88.380	        19	    1200	     4.359
  88.400	        18	    1200	     4.243
  88.420	        20	    1200	     4.472
  88.440	        24	    1200	     4.899
  88.460	        19	    1200	     4.359
  88.480	        11	    1200	     3.317
  88.500	        16	    1200	     4.000
  88.520	        18	    1200	     4.243
  88.540	        15	    1200	     3.873
  88.560	        12	    1200	     3.464
  88.580	        17	    1200	     4.123
  88.600	        14	    1200	     3.742
  88.620	        20	    1200	     4.472
  88.640	        22	    1200	     4.690
  88.660	        15	    1200	     3.873
  88.680	        14	    1200	     3.742
  88.700	        19	    1200	     4.359
  88.720	        16	    1200	     4.000
  88.740	        13	    1200	     3.606
  88.760	        20	    1200	     4.472
  88.780	        19	    1200	     4.359
  88.800	        16	    1200	     4.000
  88.820	        28	    1200	     5.292
  88.840	        20	    1200	     4.472
  88.860	        16	    1200	     4.000
  88.880	        16	    1200	     4.000
  88.900	        14	    1200	     3.742
  88.920	        19	    1200	     4.359
  88.940	        19	    1200	     4.359
  88.960	        21	    1200	     4.583
  88.980	        14	    1200	     3.742
  89.000	        16	    1200	     4.000
  89.020	        18	    1200	     4.243
  89.040	        11	    1200	     3.317
  89.060	        24	    1200	     4.899
  89.080	        22	    1200	     4.690
  89.100	        21	    1200	     4.583
  89.120	        22	    1200	     4.690
  89.140	        17	    1200	     4.123
  89.160	        19	    1200	     4.359
  89.180	         9	    1200	     3.000
  89.200	        16	    1200	     4.000
  89.220	        21	    1200	     4.583
  89.240	        15	    1200	     3.873
  89.260	        23	    1200	     4.796
  89.280	        14	    1200	     3.742
  89.300	        23	    1200	     4.796
  89.320	        12	    1200	     3.464
  89.340	        22	    1200	     4.690
  89.360	        26	    1200	     5.099
  89.380	        14	    1200	     3.742
  89.400	        12	    1200	     3.464
  89.420	        25	    1200	     5.000
  89.440	        15	    1200	     3.873
  89.460	        18	    1200	     4.243
  89.480	        22	    1200	     4.690
  89.500	        22	    1200	     4.690
  89.520	        24	    1200	     4.899
  89.540	        16	    1200	     4.000
  89.560	        21	    1200	     4.583
  89.580	        14	    1200	     3.742
  89.600	        12	    1200	     3.464
  89.620	        18	    1200	     4.243
  89.640	        25	    1200	     5.000
  89.660	        11	    1200	     3.317
  89.680	        19	    1200	     4.359
  89.700	        25	    1200	     5.000
  89.720	        13	    1200	     3.606
  89.740	        16	    1200	     4.000
  89.760	        15	    1200	     3.873
  89.780	        20	    1200	     4.472
  89.800	        13	    1200	     3.606
  89.820	        21	    1200	     4.583
  89.840	        21	    1200	     4.583
  89.860	        18	    1200	     4.243
  89.880	        13	    1200	     3.606
  89.900	        28	    1200	     5.292
  89.920	        30	    1200	     5.477
  89.940	        20	    1200	     4.472
  89.960	        18	    1200	     4.243
  89.980	        19	    1200	     4.359
  90.000	        17	    1200	     4.123
