         ID: 

    Comment: 

Scan Type: Normal
Start Angle: 15 deg.
Stop Angle: 90 deg.
Num Points: 3751
Step Size: 0.02 deg.
Datafile Res: 1600 
Scan Rate: 1.000000
Scan Mode: Continuous
Wavelength: 1.540562

Diffractometer Optics:
		Detector:
			 Type: Fixed Slits
			 X2 Configuration: No
		Tube: 
			 Type: Fixed Slits
			 X2 Configuration: No


Axis[0]
	 Selected   : no 
	 Iterative  : no 
	 Start Angle: 0.000000 
	 Stop Angle : 0.000000 
	 Step Size  : 0.000000 
	 Oscillating: no 

Axis[1]
	 Selected   : no 
	 Iterative  : no 
	 Start Angle: 0.000000 
	 Stop Angle : 0.000000 
	 Step Size  : 0.000000 
	 Oscillating: no 

Axis[2]
	 Selected   : no 
	 Iterative  : no 
	 Start Angle: 0.000000 
	 Stop Angle : 0.000000 
	 Step Size  : 0.000000 
	 Oscillating: no 

Axis[3]
	 Selected   : no 
	 Iterative  : no 
	 Start Angle: 0.000000 
	 Stop Angle : 0.000000 
	 Step Size  : 0.000000 
	 Oscillating: no 

Axis[4]
	 Selected   : no 
	 Iterative  : no 
	 Start Angle: 0.000000 
	 Stop Angle : 0.000000 
	 Step Size  : 0.000000 
	 Oscillating: no 

Axis[5]
	 Selected   : no 
	 Iterative  : no 
	 Start Angle: 0.000000 
	 Stop Angle : 0.000000 
	 Step Size  : 0.000000 
	 Oscillating: no 

Axis[6]
	 Selected   : no 
	 Iterative  : no 
	 Start Angle: 0.000000 
	 Stop Angle : 0.000000 
	 Step Size  : 0.000000 
	 Oscillating: no 

Axis[7]
	 Selected   : no 
	 Iterative  : no 
	 Start Angle: 0.000000 
	 Stop Angle : 0.000000 
	 Step Size  : 0.000000 
	 Oscillating: no 

Axis[8]
	 Selected   : no 
	 Iterative  : no 
	 Start Angle: 0.000000 
	 Stop Angle : 0.000000 
	 Step Size  : 0.000000 
	 Oscillating: no 

Axis[9]
	 Selected   : no 
	 Iterative  : no 
	 Start Angle: 0.000000 
	 Stop Angle : 0.000000 
	 Step Size  : 0.000000 
	 Oscillating: no 




	   Deg.    Counts 	   Time 	    ESD   

Range 0
  15.000	       104	    1200	    10.198
  15.020	       105	    1200	    10.247
  15.040	       117	    1200	    10.817
  15.060	       110	    1200	    10.488
  15.080	        96	    1200	     9.798
  15.100	       108	    1200	    10.392
  15.120	       103	    1200	    10.149
  15.140	       116	    1200	    10.770
  15.160	        98	    1200	     9.899
  15.180	        99	    1200	     9.950
  15.200	       104	    1200	    10.198
  15.220	        91	    1200	     9.539
  15.240	       103	    1200	    10.149
  15.260	       107	    1200	    10.344
  15.280	       107	    1200	    10.344
  15.300	       125	    1200	    11.180
  15.320	       115	    1200	    10.724
  15.340	        94	    1200	     9.695
  15.360	        90	    1200	     9.487
  15.380	        98	    1200	     9.899
  15.400	       101	    1200	    10.050
  15.420	       122	    1200	    11.045
  15.440	       103	    1200	    10.149
  15.460	        91	    1200	     9.539
  15.480	       114	    1200	    10.677
  15.500	       100	    1200	    10.000
  15.520	       121	    1200	    11.000
  15.540	       115	    1200	    10.724
  15.560	       102	    1200	    10.100
  15.580	        91	    1200	     9.539
  15.600	       112	    1200	    10.583
  15.620	       102	    1200	    10.100
  15.640	        95	    1200	     9.747
  15.660	        93	    1200	     9.644
  15.680	        83	    1200	     9.110
  15.700	        88	    1200	     9.381
  15.720	        99	    1200	     9.950
  15.740	        94	    1200	     9.695
  15.760	        99	    1200	     9.950
  15.780	       101	    1200	    10.050
  15.800	       104	    1200	    10.198
  15.820	        88	    1200	     9.381
  15.840	       100	    1200	    10.000
  15.860	        88	    1200	     9.381
  15.880	       103	    1200	    10.149
  15.900	       110	    1200	    10.488
  15.920	        89	    1200	     9.434
  15.940	        74	    1200	     8.602
  15.960	        94	    1200	     9.695
  15.980	        97	    1200	     9.849
  16.000	        93	    1200	     9.644
  16.020	        95	    1200	     9.747
  16.040	       101	    1200	    10.050
  16.060	        98	    1200	     9.899
  16.080	        91	    1200	     9.539
  16.100	       111	    1200	    10.536
  16.120	       111	    1200	    10.536
  16.140	       116	    1200	    10.770
  16.160	       105	    1200	    10.247
  16.180	       107	    1200	    10.344
  16.200	        94	    1200	     9.695
  16.220	       106	    1200	    10.296
  16.240	       107	    1200	    10.344
  16.260	        84	    1200	     9.165
  16.280	        91	    1200	     9.539
  16.300	        95	    1200	     9.747
  16.320	       108	    1200	    10.392
  16.340	        97	    1200	     9.849
  16.360	       107	    1200	    10.344
  16.380	       106	    1200	    10.296
  16.400	        94	    1200	     9.695
  16.420	       102	    1200	    10.100
  16.440	        95	    1200	     9.747
  16.460	       112	    1200	    10.583
  16.480	       111	    1200	    10.536
  16.500	       103	    1200	    10.149
  16.520	        99	    1200	     9.950
  16.540	       105	    1200	    10.247
  16.560	       100	    1200	    10.000
  16.580	        85	    1200	     9.220
  16.600	       105	    1200	    10.247
  16.620	        98	    1200	     9.899
  16.640	        93	    1200	     9.644
  16.660	       115	    1200	    10.724
  16.680	       120	    1200	    10.954
  16.700	       114	    1200	    10.677
  16.720	        93	    1200	     9.644
  16.740	       106	    1200	    10.296
  16.760	       119	    1200	    10.909
  16.780	       100	    1200	    10.000
  16.800	       119	    1200	    10.909
  16.820	        94	    1200	     9.695
  16.840	        90	    1200	     9.487
  16.860	        99	    1200	     9.950
  16.880	        95	    1200	     9.747
  16.900	       105	    1200	    10.247
  16.920	        99	    1200	     9.950
  16.940	        91	    1200	     9.539
  16.960	       105	    1200	    10.247
  16.980	        98	    1200	     9.899
  17.000	       104	    1200	    10.198
  17.020	        97	    1200	     9.849
  17.040	        93	    1200	     9.644
  17.060	       112	    1200	    10.583
  17.080	        81	    1200	     9.000
  17.100	       106	    1200	    10.296
  17.120	        99	    1200	     9.950
  17.140	        94	    1200	     9.695
  17.160	       101	    1200	    10.050
  17.180	       102	    1200	    10.100
  17.200	       106	    1200	    10.296
  17.220	        95	    1200	     9.747
  17.240	        92	    1200	     9.592
  17.260	        93	    1200	     9.644
  17.280	        90	    1200	     9.487
  17.300	        95	    1200	     9.747
  17.320	       106	    1200	    10.296
  17.340	        96	    1200	     9.798
  17.360	        78	    1200	     8.832
  17.380	       103	    1200	    10.149
  17.400	        91	    1200	     9.539
  17.420	        92	    1200	     9.592
  17.440	       104	    1200	    10.198
  17.460	       117	    1200	    10.817
  17.480	       115	    1200	    10.724
  17.500	       101	    1200	    10.050
  17.520	        79	    1200	     8.888
  17.540	       104	    1200	    10.198
  17.560	        96	    1200	     9.798
  17.580	        84	    1200	     9.165
  17.600	       109	    1200	    10.440
  17.620	        80	    1200	     8.944
  17.640	       100	    1200	    10.000
  17.660	       100	    1200	    10.000
  17.680	        96	    1200	     9.798
  17.700	       109	    1200	    10.440
  17.720	       106	    1200	    10.296
  17.740	        95	    1200	     9.747
  17.760	        90	    1200	     9.487
  17.780	       100	    1200	    10.000
  17.800	        99	    1200	     9.950
  17.820	       103	    1200	    10.149
  17.840	        97	    1200	     9.849
  17.860	        86	    1200	     9.274
  17.880	        98	    1200	     9.899
  17.900	        97	    1200	     9.849
  17.920	       103	    1200	    10.149
  17.940	        92	    1200	     9.592
  17.960	        95	    1200	     9.747
  17.980	       102	    1200	    10.100
  18.000	        91	    1200	     9.539
  18.020	       101	    1200	    10.050
  18.040	       101	    1200	    10.050
  18.060	       118	    1200	    10.863
  18.080	        88	    1200	     9.381
  18.100	       102	    1200	    10.100
  18.120	       117	    1200	    10.817
  18.140	        93	    1200	     9.644
  18.160	       100	    1200	    10.000
  18.180	       116	    1200	    10.770
  18.200	        82	    1200	     9.055
  18.220	       107	    1200	    10.344
  18.240	       105	    1200	    10.247
  18.260	       114	    1200	    10.677
  18.280	       112	    1200	    10.583
  18.300	       107	    1200	    10.344
  18.320	        84	    1200	     9.165
  18.340	       104	    1200	    10.198
  18.360	       101	    1200	    10.050
  18.380	        86	    1200	     9.274
  18.400	        83	    1200	     9.110
  18.420	       125	    1200	    11.180
  18.440	       108	    1200	    10.392
  18.460	        97	    1200	     9.849
  18.480	       112	    1200	    10.583
  18.500	        98	    1200	     9.899
  18.520	       107	    1200	    10.344
  18.540	        93	    1200	     9.644
  18.560	       112	    1200	    10.583
  18.580	        87	    1200	     9.327
  18.600	        81	    1200	     9.000
  18.620	       105	    1200	    10.247
  18.640	       117	    1200	    10.817
  18.660	       104	    1200	    10.198
  18.680	       106	    1200	    10.296
  18.700	       112	    1200	    10.583
  18.720	        95	    1200	     9.747
  18.740	       107	    1200	    10.344
  18.760	       100	    1200	    10.000
  18.780	       107	    1200	    10.344
  18.800	        99	    1200	     9.950
  18.820	       108	    1200	    10.392
  18.840	        95	    1200	     9.747
  18.860	        90	    1200	     9.487
  18.880	       115	    1200	    10.724
  18.900	       103	    1200	    10.149
  18.920	       101	    1200	    10.050
  18.940	        84	    1200	     9.165
  18.960	       110	    1200	    10.488
  18.980	        98	    1200	     9.899
  19.000	       108	    1200	    10.392
  19.020	        92	    1200	     9.592
  19.040	        79	    1200	     8.888
  19.060	       107	    1200	    10.344
  19.080	        98	    1200	     9.899
  19.100	        99	    1200	     9.950
  19.120	       104	    1200	    10.198
  19.140	       101	    1200	    10.050
  19.160	       100	    1200	    10.000
  19.180	       114	    1200	    10.677
  19.200	       101	    1200	    10.050
  19.220	       127	    1200	    11.269
  19.240	        90	    1200	     9.487
  19.260	        90	    1200	     9.487
  19.280	       107	    1200	    10.344
  19.300	        97	    1200	     9.849
  19.320	        94	    1200	     9.695
  19.340	       106	    1200	    10.296
  19.360	       107	    1200	    10.344
  19.380	        85	    1200	     9.220
  19.400	        92	    1200	     9.592
  19.420	       103	    1200	    10.149
  19.440	       114	    1200	    10.677
  19.460	       120	    1200	    10.954
  19.480	        99	    1200	     9.950
  19.500	       107	    1200	    10.344
  19.520	        88	    1200	     9.381
  19.540	       111	    1200	    10.536
  19.560	       102	    1200	    10.100
  19.580	        99	    1200	     9.950
  19.600	        96	    1200	     9.798
  19.620	       103	    1200	    10.149
  19.640	        81	    1200	     9.000
  19.660	       110	    1200	    10.488
  19.680	       114	    1200	    10.677
  19.700	        95	    1200	     9.747
  19.720	       105	    1200	    10.247
  19.740	       123	    1200	    11.091
  19.760	       112	    1200	    10.583
  19.780	        97	    1200	     9.849
  19.800	       117	    1200	    10.817
  19.820	       108	    1200	    10.392
  19.840	        94	    1200	     9.695
  19.860	       100	    1200	    10.000
  19.880	       103	    1200	    10.149
  19.900	        81	    1200	     9.000
  19.920	       118	    1200	    10.863
  19.940	       114	    1200	    10.677
  19.960	        93	    1200	     9.644
  19.980	        99	    1200	     9.950
  20.000	        90	    1200	     9.487
  20.020	       102	    1200	    10.100
  20.040	        94	    1200	     9.695
  20.060	        97	    1200	     9.849
  20.080	        99	    1200	     9.950
  20.100	        95	    1200	     9.747
  20.120	        90	    1200	     9.487
  20.140	       102	    1200	    10.100
  20.160	       103	    1200	    10.149
  20.180	       103	    1200	    10.149
  20.200	       104	    1200	    10.198
  20.220	       126	    1200	    11.225
  20.240	       113	    1200	    10.630
  20.260	        98	    1200	     9.899
  20.280	        98	    1200	     9.899
  20.300	       104	    1200	    10.198
  20.320	        87	    1200	     9.327
  20.340	        91	    1200	     9.539
  20.360	        89	    1200	     9.434
  20.380	       105	    1200	    10.247
  20.400	       114	    1200	    10.677
  20.420	       102	    1200	    10.100
  20.440	       107	    1200	    10.344
  20.460	        98	    1200	     9.899
  20.480	       109	    1200	    10.440
  20.500	       109	    1200	    10.440
  20.520	       106	    1200	    10.296
  20.540	       121	    1200	    11.000
  20.560	        91	    1200	     9.539
  20.580	       109	    1200	    10.440
  20.600	       104	    1200	    10.198
  20.620	       116	    1200	    10.770
  20.640	       127	    1200	    11.269
  20.660	       124	    1200	    11.136
  20.680	       123	    1200	    11.091
  20.700	        95	    1200	     9.747
  20.720	       106	    1200	    10.296
  20.740	       109	    1200	    10.440
  20.760	       103	    1200	    10.149
  20.780	       101	    1200	    10.050
  20.800	       117	    1200	    10.817
  20.820	        87	    1200	     9.327
  20.840	       127	    1200	    11.269
  20.860	       110	    1200	    10.488
  20.880	       130	    1200	    11.402
  20.900	       107	    1200	    10.344
  20.920	       102	    1200	    10.100
  20.940	       101	    1200	    10.050
  20.960	       108	    1200	    10.392
  20.980	        99	    1200	     9.950
  21.000	        93	    1200	     9.644
  21.020	        93	    1200	     9.644
  21.040	       105	    1200	    10.247
  21.060	       101	    1200	    10.050
  21.080	       112	    1200	    10.583
  21.100	       113	    1200	    10.630
  21.120	       109	    1200	    10.440
  21.140	       103	    1200	    10.149
  21.160	       126	    1200	    11.225
  21.180	       107	    1200	    10.344
  21.200	       101	    1200	    10.050
  21.220	       115	    1200	    10.724
  21.240	       110	    1200	    10.488
  21.260	       100	    1200	    10.000
  21.280	       117	    1200	    10.817
  21.300	       111	    1200	    10.536
  21.320	        89	    1200	     9.434
  21.340	        94	    1200	     9.695
  21.360	       101	    1200	    10.050
  21.380	       112	    1200	    10.583
  21.400	       108	    1200	    10.392
  21.420	       111	    1200	    10.536
  21.440	       109	    1200	    10.440
  21.460	        89	    1200	     9.434
  21.480	       107	    1200	    10.344
  21.500	       122	    1200	    11.045
  21.520	        96	    1200	     9.798
  21.540	       106	    1200	    10.296
  21.560	       105	    1200	    10.247
  21.580	       104	    1200	    10.198
  21.600	       107	    1200	    10.344
  21.620	       126	    1200	    11.225
  21.640	       110	    1200	    10.488
  21.660	       112	    1200	    10.583
  21.680	       101	    1200	    10.050
  21.700	        97	    1200	     9.849
  21.720	       124	    1200	    11.136
  21.740	       129	    1200	    11.358
  21.760	       108	    1200	    10.392
  21.780	       115	    1200	    10.724
  21.800	       109	    1200	    10.440
  21.820	       113	    1200	    10.630
  21.840	        94	    1200	     9.695
  21.860	       103	    1200	    10.149
  21.880	       127	    1200	    11.269
  21.900	       106	    1200	    10.296
  21.920	       101	    1200	    10.050
  21.940	        95	    1200	     9.747
  21.960	       119	    1200	    10.909
  21.980	       113	    1200	    10.630
  22.000	       104	    1200	    10.198
  22.020	       120	    1200	    10.954
  22.040	       118	    1200	    10.863
  22.060	       113	    1200	    10.630
  22.080	       102	    1200	    10.100
  22.100	       107	    1200	    10.344
  22.120	       122	    1200	    11.045
  22.140	       109	    1200	    10.440
  22.160	       131	    1200	    11.446
  22.180	        94	    1200	     9.695
  22.200	       108	    1200	    10.392
  22.220	       113	    1200	    10.630
  22.240	       110	    1200	    10.488
  22.260	        99	    1200	     9.950
  22.280	       105	    1200	    10.247
  22.300	        99	    1200	     9.950
  22.320	       129	    1200	    11.358
  22.340	       112	    1200	    10.583
  22.360	       108	    1200	    10.392
  22.380	       109	    1200	    10.440
  22.400	       117	    1200	    10.817
  22.420	       112	    1200	    10.583
  22.440	       131	    1200	    11.446
  22.460	       112	    1200	    10.583
  22.480	       122	    1200	    11.045
  22.500	       122	    1200	    11.045
  22.520	       124	    1200	    11.136
  22.540	       114	    1200	    10.677
  22.560	       101	    1200	    10.050
  22.580	       138	    1200	    11.747
  22.600	        92	    1200	     9.592
  22.620	       127	    1200	    11.269
  22.640	       137	    1200	    11.705
  22.660	       138	    1200	    11.747
  22.680	       130	    1200	    11.402
  22.700	       125	    1200	    11.180
  22.720	       117	    1200	    10.817
  22.740	       110	    1200	    10.488
  22.760	       123	    1200	    11.091
  22.780	       129	    1200	    11.358
  22.800	       133	    1200	    11.533
  22.820	       153	    1200	    12.369
  22.840	       129	    1200	    11.358
  22.860	       123	    1200	    11.091
  22.880	       145	    1200	    12.042
  22.900	       139	    1200	    11.790
  22.920	       136	    1200	    11.662
  22.940	       127	    1200	    11.269
  22.960	       141	    1200	    11.874
  22.980	       120	    1200	    10.954
  23.000	       119	    1200	    10.909
  23.020	       133	    1200	    11.533
  23.040	       133	    1200	    11.533
  23.060	       151	    1200	    12.288
  23.080	       128	    1200	    11.314
  23.100	       122	    1200	    11.045
  23.120	       119	    1200	    10.909
  23.140	       128	    1200	    11.314
  23.160	       106	    1200	    10.296
  23.180	       131	    1200	    11.446
  23.200	       110	    1200	    10.488
  23.220	       104	    1200	    10.198
  23.240	       114	    1200	    10.677
  23.260	       123	    1200	    11.091
  23.280	       121	    1200	    11.000
  23.300	       101	    1200	    10.050
  23.320	       115	    1200	    10.724
  23.340	       118	    1200	    10.863
  23.360	       104	    1200	    10.198
  23.380	       134	    1200	    11.576
  23.400	       127	    1200	    11.269
  23.420	       111	    1200	    10.536
  23.440	       108	    1200	    10.392
  23.460	       120	    1200	    10.954
  23.480	        96	    1200	     9.798
  23.500	        97	    1200	     9.849
  23.520	       109	    1200	    10.440
  23.540	       109	    1200	    10.440
  23.560	       109	    1200	    10.440
  23.580	       118	    1200	    10.863
  23.600	       108	    1200	    10.392
  23.620	       115	    1200	    10.724
  23.640	       116	    1200	    10.770
  23.660	       111	    1200	    10.536
  23.680	       104	    1200	    10.198
  23.700	       104	    1200	    10.198
  23.720	        84	    1200	     9.165
  23.740	       104	    1200	    10.198
  23.760	       105	    1200	    10.247
  23.780	       121	    1200	    11.000
  23.800	       100	    1200	    10.000
  23.820	       106	    1200	    10.296
  23.840	       113	    1200	    10.630
  23.860	       112	    1200	    10.583
  23.880	       103	    1200	    10.149
  23.900	       103	    1200	    10.149
  23.920	       106	    1200	    10.296
  23.940	       109	    1200	    10.440
  23.960	       136	    1200	    11.662
  23.980	       124	    1200	    11.136
  24.000	        93	    1200	     9.644
  24.020	       117	    1200	    10.817
  24.040	       109	    1200	    10.440
  24.060	       112	    1200	    10.583
  24.080	       127	    1200	    11.269
  24.100	       102	    1200	    10.100
  24.120	       103	    1200	    10.149
  24.140	       110	    1200	    10.488
  24.160	       101	    1200	    10.050
  24.180	       106	    1200	    10.296
  24.200	       112	    1200	    10.583
  24.220	        98	    1200	     9.899
  24.240	       106	    1200	    10.296
  24.260	       112	    1200	    10.583
  24.280	       126	    1200	    11.225
  24.300	       118	    1200	    10.863
  24.320	        96	    1200	     9.798
  24.340	       124	    1200	    11.136
  24.360	       100	    1200	    10.000
  24.380	       130	    1200	    11.402
  24.400	        94	    1200	     9.695
  24.420	       129	    1200	    11.358
  24.440	       121	    1200	    11.000
  24.460	        98	    1200	     9.899
  24.480	       129	    1200	    11.358
  24.500	       112	    1200	    10.583
  24.520	       103	    1200	    10.149
  24.540	       119	    1200	    10.909
  24.560	       105	    1200	    10.247
  24.580	        92	    1200	     9.592
  24.600	       111	    1200	    10.536
  24.620	       118	    1200	    10.863
  24.640	       113	    1200	    10.630
  24.660	       108	    1200	    10.392
  24.680	       106	    1200	    10.296
  24.700	       110	    1200	    10.488
  24.720	       103	    1200	    10.149
  24.740	       125	    1200	    11.180
  24.760	       129	    1200	    11.358
  24.780	       101	    1200	    10.050
  24.800	       105	    1200	    10.247
  24.820	       102	    1200	    10.100
  24.840	       106	    1200	    10.296
  24.860	       100	    1200	    10.000
  24.880	       106	    1200	    10.296
  24.900	        78	    1200	     8.832
  24.920	       121	    1200	    11.000
  24.940	        83	    1200	     9.110
  24.960	       129	    1200	    11.358
  24.980	       107	    1200	    10.344
  25.000	       104	    1200	    10.198
  25.020	        82	    1200	     9.055
  25.040	        97	    1200	     9.849
  25.060	       100	    1200	    10.000
  25.080	       108	    1200	    10.392
  25.100	        94	    1200	     9.695
  25.120	        97	    1200	     9.849
  25.140	       109	    1200	    10.440
  25.160	        81	    1200	     9.000
  25.180	        91	    1200	     9.539
  25.200	        97	    1200	     9.849
  25.220	        93	    1200	     9.644
  25.240	       103	    1200	    10.149
  25.260	        98	    1200	     9.899
  25.280	        94	    1200	     9.695
  25.300	        98	    1200	     9.899
  25.320	        96	    1200	     9.798
  25.340	        91	    1200	     9.539
  25.360	        86	    1200	     9.274
  25.380	       103	    1200	    10.149
  25.400	        96	    1200	     9.798
  25.420	       101	    1200	    10.050
  25.440	        77	    1200	     8.775
  25.460	        94	    1200	     9.695
  25.480	        98	    1200	     9.899
  25.500	        71	    1200	     8.426
  25.520	        93	    1200	     9.644
  25.540	        95	    1200	     9.747
  25.560	        94	    1200	     9.695
  25.580	        77	    1200	     8.775
  25.600	        90	    1200	     9.487
  25.620	        96	    1200	     9.798
  25.640	        84	    1200	     9.165
  25.660	        98	    1200	     9.899
  25.680	        84	    1200	     9.165
  25.700	       101	    1200	    10.050
  25.720	        88	    1200	     9.381
  25.740	        71	    1200	     8.426
  25.760	       100	    1200	    10.000
  25.780	       101	    1200	    10.050
  25.800	        94	    1200	     9.695
  25.820	       103	    1200	    10.149
  25.840	        96	    1200	     9.798
  25.860	        82	    1200	     9.055
  25.880	        88	    1200	     9.381
  25.900	        90	    1200	     9.487
  25.920	        92	    1200	     9.592
  25.940	        75	    1200	     8.660
  25.960	        97	    1200	     9.849
  25.980	       104	    1200	    10.198
  26.000	        86	    1200	     9.274
  26.020	        63	    1200	     7.937
  26.040	        88	    1200	     9.381
  26.060	        86	    1200	     9.274
  26.080	       111	    1200	    10.536
  26.100	        93	    1200	     9.644
  26.120	        85	    1200	     9.220
  26.140	        95	    1200	     9.747
  26.160	        93	    1200	     9.644
  26.180	        62	    1200	     7.874
  26.200	        77	    1200	     8.775
  26.220	        77	    1200	     8.775
  26.240	        81	    1200	     9.000
  26.260	        94	    1200	     9.695
  26.280	        93	    1200	     9.644
  26.300	        86	    1200	     9.274
  26.320	        99	    1200	     9.950
  26.340	        79	    1200	     8.888
  26.360	        99	    1200	     9.950
  26.380	        87	    1200	     9.327
  26.400	        80	    1200	     8.944
  26.420	        62	    1200	     7.874
  26.440	        91	    1200	     9.539
  26.460	        97	    1200	     9.849
  26.480	        87	    1200	     9.327
  26.500	        84	    1200	     9.165
  26.520	        73	    1200	     8.544
  26.540	        80	    1200	     8.944
  26.560	        82	    1200	     9.055
  26.580	        83	    1200	     9.110
  26.600	        81	    1200	     9.000
  26.620	        70	    1200	     8.367
  26.640	        80	    1200	     8.944
  26.660	        71	    1200	     8.426
  26.680	        83	    1200	     9.110
  26.700	        99	    1200	     9.950
  26.720	        88	    1200	     9.381
  26.740	        77	    1200	     8.775
  26.760	        93	    1200	     9.644
  26.780	        96	    1200	     9.798
  26.800	        84	    1200	     9.165
  26.820	        78	    1200	     8.832
  26.840	        96	    1200	     9.798
  26.860	        76	    1200	     8.718
  26.880	        81	    1200	     9.000
  26.900	        70	    1200	     8.367
  26.920	        61	    1200	     7.810
  26.940	        70	    1200	     8.367
  26.960	        93	    1200	     9.644
  26.980	        62	    1200	     7.874
  27.000	        70	    1200	     8.367
  27.020	        77	    1200	     8.775
  27.040	        55	    1200	     7.416
  27.060	        76	    1200	     8.718
  27.080	        85	    1200	     9.220
  27.100	        84	    1200	     9.165
  27.120	        89	    1200	     9.434
  27.140	        85	    1200	     9.220
  27.160	        91	    1200	     9.539
  27.180	        83	    1200	     9.110
  27.200	        72	    1200	     8.485
  27.220	        75	    1200	     8.660
  27.240	        63	    1200	     7.937
  27.260	        77	    1200	     8.775
  27.280	        63	    1200	     7.937
  27.300	        63	    1200	     7.937
  27.320	        83	    1200	     9.110
  27.340	        94	    1200	     9.695
  27.360	        75	    1200	     8.660
  27.380	        72	    1200	     8.485
  27.400	        77	    1200	     8.775
  27.420	        61	    1200	     7.810
  27.440	        79	    1200	     8.888
  27.460	        68	    1200	     8.246
  27.480	        71	    1200	     8.426
  27.500	        80	    1200	     8.944
  27.520	        77	    1200	     8.775
  27.540	        88	    1200	     9.381
  27.560	        60	    1200	     7.746
  27.580	        84	    1200	     9.165
  27.600	        83	    1200	     9.110
  27.620	        69	    1200	     8.307
  27.640	        66	    1200	     8.124
  27.660	        77	    1200	     8.775
  27.680	        80	    1200	     8.944
  27.700	        79	    1200	     8.888
  27.720	        72	    1200	     8.485
  27.740	        79	    1200	     8.888
  27.760	        84	    1200	     9.165
  27.780	        74	    1200	     8.602
  27.800	        73	    1200	     8.544
  27.820	        78	    1200	     8.832
  27.840	        69	    1200	     8.307
  27.860	        66	    1200	     8.124
  27.880	        66	    1200	     8.124
  27.900	        74	    1200	     8.602
  27.920	        75	    1200	     8.660
  27.940	        74	    1200	     8.602
  27.960	        73	    1200	     8.544
  27.980	        81	    1200	     9.000
  28.000	        70	    1200	     8.367
  28.020	        67	    1200	     8.185
  28.040	        95	    1200	     9.747
  28.060	        76	    1200	     8.718
  28.080	        69	    1200	     8.307
  28.100	        68	    1200	     8.246
  28.120	        55	    1200	     7.416
  28.140	        66	    1200	     8.124
  28.160	        70	    1200	     8.367
  28.180	        71	    1200	     8.426
  28.200	        78	    1200	     8.832
  28.220	        67	    1200	     8.185
  28.240	        68	    1200	     8.246
  28.260	        67	    1200	     8.185
  28.280	        67	    1200	     8.185
  28.300	        74	    1200	     8.602
  28.320	        69	    1200	     8.307
  28.340	        63	    1200	     7.937
  28.360	        54	    1200	     7.348
  28.380	        68	    1200	     8.246
  28.400	        75	    1200	     8.660
  28.420	        77	    1200	     8.775
  28.440	        78	    1200	     8.832
  28.460	        73	    1200	     8.544
  28.480	        75	    1200	     8.660
  28.500	        64	    1200	     8.000
  28.520	        84	    1200	     9.165
  28.540	        68	    1200	     8.246
  28.560	        79	    1200	     8.888
  28.580	        65	    1200	     8.062
  28.600	        69	    1200	     8.307
  28.620	        83	    1200	     9.110
  28.640	        79	    1200	     8.888
  28.660	        75	    1200	     8.660
  28.680	        68	    1200	     8.246
  28.700	        66	    1200	     8.124
  28.720	        65	    1200	     8.062
  28.740	        70	    1200	     8.367
  28.760	        70	    1200	     8.367
  28.780	        64	    1200	     8.000
  28.800	        51	    1200	     7.141
  28.820	        66	    1200	     8.124
  28.840	        69	    1200	     8.307
  28.860	        64	    1200	     8.000
  28.880	        62	    1200	     7.874
  28.900	        70	    1200	     8.367
  28.920	        69	    1200	     8.307
  28.940	        69	    1200	     8.307
  28.960	        64	    1200	     8.000
  28.980	        67	    1200	     8.185
  29.000	        55	    1200	     7.416
  29.020	        72	    1200	     8.485
  29.040	        83	    1200	     9.110
  29.060	        75	    1200	     8.660
  29.080	        69	    1200	     8.307
  29.100	        73	    1200	     8.544
  29.120	        52	    1200	     7.211
  29.140	        79	    1200	     8.888
  29.160	        64	    1200	     8.000
  29.180	        79	    1200	     8.888
  29.200	        68	    1200	     8.246
  29.220	        77	    1200	     8.775
  29.240	        67	    1200	     8.185
  29.260	        68	    1200	     8.246
  29.280	        62	    1200	     7.874
  29.300	        71	    1200	     8.426
  29.320	        58	    1200	     7.616
  29.340	        50	    1200	     7.071
  29.360	        72	    1200	     8.485
  29.380	        64	    1200	     8.000
  29.400	        70	    1200	     8.367
  29.420	        70	    1200	     8.367
  29.440	        73	    1200	     8.544
  29.460	        55	    1200	     7.416
  29.480	        79	    1200	     8.888
  29.500	        66	    1200	     8.124
  29.520	        74	    1200	     8.602
  29.540	        67	    1200	     8.185
  29.560	        67	    1200	     8.185
  29.580	        58	    1200	     7.616
  29.600	        61	    1200	     7.810
  29.620	        60	    1200	     7.746
  29.640	        80	    1200	     8.944
  29.660	        60	    1200	     7.746
  29.680	        50	    1200	     7.071
  29.700	        66	    1200	     8.124
  29.720	        57	    1200	     7.550
  29.740	        77	    1200	     8.775
  29.760	        63	    1200	     7.937
  29.780	        60	    1200	     7.746
  29.800	        66	    1200	     8.124
  29.820	        80	    1200	     8.944
  29.840	        71	    1200	     8.426
  29.860	        56	    1200	     7.483
  29.880	        57	    1200	     7.550
  29.900	        58	    1200	     7.616
  29.920	        71	    1200	     8.426
  29.940	        60	    1200	     7.746
  29.960	        55	    1200	     7.416
  29.980	        62	    1200	     7.874
  30.000	        75	    1200	     8.660
  30.020	        63	    1200	     7.937
  30.040	        61	    1200	     7.810
  30.060	        59	    1200	     7.681
  30.080	        68	    1200	     8.246
  30.100	        63	    1200	     7.937
  30.120	        62	    1200	     7.874
  30.140	        76	    1200	     8.718
  30.160	        67	    1200	     8.185
  30.180	        53	    1200	     7.280
  30.200	        61	    1200	     7.810
  30.220	        67	    1200	     8.185
  30.240	        76	    1200	     8.718
  30.260	        67	    1200	     8.185
  30.280	        57	    1200	     7.550
  30.300	        68	    1200	     8.246
  30.320	        58	    1200	     7.616
  30.340	        56	    1200	     7.483
  30.360	        56	    1200	     7.483
  30.380	        58	    1200	     7.616
  30.400	        61	    1200	     7.810
  30.420	        67	    1200	     8.185
  30.440	        58	    1200	     7.616
  30.460	        77	    1200	     8.775
  30.480	        63	    1200	     7.937
  30.500	        62	    1200	     7.874
  30.520	        70	    1200	     8.367
  30.540	        64	    1200	     8.000
  30.560	        67	    1200	     8.185
  30.580	        71	    1200	     8.426
  30.600	        63	    1200	     7.937
  30.620	        74	    1200	     8.602
  30.640	        73	    1200	     8.544
  30.660	        64	    1200	     8.000
  30.680	        54	    1200	     7.348
  30.700	        87	    1200	     9.327
  30.720	        80	    1200	     8.944
  30.740	        65	    1200	     8.062
  30.760	        62	    1200	     7.874
  30.780	        81	    1200	     9.000
  30.800	        74	    1200	     8.602
  30.820	        79	    1200	     8.888
  30.840	        69	    1200	     8.307
  30.860	        67	    1200	     8.185
  30.880	        69	    1200	     8.307
  30.900	        64	    1200	     8.000
  30.920	        63	    1200	     7.937
  30.940	        59	    1200	     7.681
  30.960	        80	    1200	     8.944
  30.980	        75	    1200	     8.660
  31.000	        97	    1200	     9.849
  31.020	        67	    1200	     8.185
  31.040	        57	    1200	     7.550
  31.060	        75	    1200	     8.660
  31.080	        73	    1200	     8.544
  31.100	        71	    1200	     8.426
  31.120	        83	    1200	     9.110
  31.140	        61	    1200	     7.810
  31.160	        74	    1200	     8.602
  31.180	        65	    1200	     8.062
  31.200	       103	    1200	    10.149
  31.220	        94	    1200	     9.695
  31.240	        95	    1200	     9.747
  31.260	       100	    1200	    10.000
  31.280	       110	    1200	    10.488
  31.300	        99	    1200	     9.950
  31.320	       150	    1200	    12.247
  31.340	       153	    1200	    12.369
  31.360	       147	    1200	    12.124
  31.380	       166	    1200	    12.884
  31.400	       191	    1200	    13.820
  31.420	       253	    1200	    15.906
  31.440	       248	    1200	    15.748
  31.460	       260	    1200	    16.125
  31.480	       300	    1200	    17.321
  31.500	       276	    1200	    16.613
  31.520	       298	    1200	    17.263
  31.540	       249	    1200	    15.780
  31.560	       299	    1200	    17.292
  31.580	       296	    1200	    17.205
  31.600	       297	    1200	    17.234
  31.620	       297	    1200	    17.234
  31.640	       320	    1200	    17.889
  31.660	       339	    1200	    18.412
  31.680	       358	    1200	    18.921
  31.700	       345	    1200	    18.574
  31.720	       362	    1200	    19.026
  31.740	       319	    1200	    17.861
  31.760	       338	    1200	    18.385
  31.780	       337	    1200	    18.358
  31.800	       340	    1200	    18.439
  31.820	       332	    1200	    18.221
  31.840	       303	    1200	    17.407
  31.860	       298	    1200	    17.263
  31.880	       267	    1200	    16.340
  31.900	       236	    1200	    15.362
  31.920	       265	    1200	    16.279
  31.940	       264	    1200	    16.248
  31.960	       234	    1200	    15.297
  31.980	       231	    1200	    15.199
  32.000	       251	    1200	    15.843
  32.020	       308	    1200	    17.550
  32.040	       285	    1200	    16.882
  32.060	       335	    1200	    18.303
  32.080	       368	    1200	    19.183
  32.100	       370	    1200	    19.235
  32.120	       389	    1200	    19.723
  32.140	       466	    1200	    21.587
  32.160	       472	    1200	    21.726
  32.180	       548	    1200	    23.409
  32.200	       563	    1200	    23.728
  32.220	       569	    1200	    23.854
  32.240	       654	    1200	    25.573
  32.260	       669	    1200	    25.865
  32.280	       681	    1200	    26.096
  32.300	       696	    1200	    26.382
  32.320	       684	    1200	    26.153
  32.340	       709	    1200	    26.627
  32.360	       709	    1200	    26.627
  32.380	       690	    1200	    26.268
  32.400	       647	    1200	    25.436
  32.420	       624	    1200	    24.980
  32.440	       558	    1200	    23.622
  32.460	       479	    1200	    21.886
  32.480	       532	    1200	    23.065
  32.500	       465	    1200	    21.564
  32.520	       429	    1200	    20.712
  32.540	       378	    1200	    19.442
  32.560	       364	    1200	    19.079
  32.580	       317	    1200	    17.804
  32.600	       282	    1200	    16.793
  32.620	       285	    1200	    16.882
  32.640	       247	    1200	    15.716
  32.660	       239	    1200	    15.460
  32.680	       234	    1200	    15.297
  32.700	       215	    1200	    14.663
  32.720	       197	    1200	    14.036
  32.740	       204	    1200	    14.283
  32.760	       188	    1200	    13.711
  32.780	       158	    1200	    12.570
  32.800	       162	    1200	    12.728
  32.820	       132	    1200	    11.489
  32.840	       143	    1200	    11.958
  32.860	       136	    1200	    11.662
  32.880	       150	    1200	    12.247
  32.900	       107	    1200	    10.344
  32.920	       112	    1200	    10.583
  32.940	        97	    1200	     9.849
  32.960	       105	    1200	    10.247
  32.980	        76	    1200	     8.718
  33.000	        84	    1200	     9.165
  33.020	        79	    1200	     8.888
  33.040	        79	    1200	     8.888
  33.060	       103	    1200	    10.149
  33.080	        61	    1200	     7.810
  33.100	        83	    1200	     9.110
  33.120	        64	    1200	     8.000
  33.140	        59	    1200	     7.681
  33.160	        81	    1200	     9.000
  33.180	        84	    1200	     9.165
  33.200	        84	    1200	     9.165
  33.220	        55	    1200	     7.416
  33.240	        56	    1200	     7.483
  33.260	        53	    1200	     7.280
  33.280	        63	    1200	     7.937
  33.300	        58	    1200	     7.616
  33.320	        58	    1200	     7.616
  33.340	        49	    1200	     7.000
  33.360	        61	    1200	     7.810
  33.380	        61	    1200	     7.810
  33.400	        62	    1200	     7.874
  33.420	        61	    1200	     7.810
  33.440	        52	    1200	     7.211
  33.460	        51	    1200	     7.141
  33.480	        63	    1200	     7.937
  33.500	        62	    1200	     7.874
  33.520	        56	    1200	     7.483
  33.540	        53	    1200	     7.280
  33.560	        58	    1200	     7.616
  33.580	        64	    1200	     8.000
  33.600	        56	    1200	     7.483
  33.620	        64	    1200	     8.000
  33.640	        55	    1200	     7.416
  33.660	        65	    1200	     8.062
  33.680	        49	    1200	     7.000
  33.700	        87	    1200	     9.327
  33.720	        64	    1200	     8.000
  33.740	        59	    1200	     7.681
  33.760	        63	    1200	     7.937
  33.780	        53	    1200	     7.280
  33.800	        47	    1200	     6.856
  33.820	        30	    1200	     5.477
  33.840	        63	    1200	     7.937
  33.860	        55	    1200	     7.416
  33.880	        55	    1200	     7.416
  33.900	        57	    1200	     7.550
  33.920	        59	    1200	     7.681
  33.940	        58	    1200	     7.616
  33.960	        36	    1200	     6.000
  33.980	        52	    1200	     7.211
  34.000	        56	    1200	     7.483
  34.020	        48	    1200	     6.928
  34.040	        47	    1200	     6.856
  34.060	        38	    1200	     6.164
  34.080	        56	    1200	     7.483
  34.100	        50	    1200	     7.071
  34.120	        45	    1200	     6.708
  34.140	        41	    1200	     6.403
  34.160	        58	    1200	     7.616
  34.180	        53	    1200	     7.280
  34.200	        52	    1200	     7.211
  34.220	        48	    1200	     6.928
  34.240	        46	    1200	     6.782
  34.260	        56	    1200	     7.483
  34.280	        48	    1200	     6.928
  34.300	        61	    1200	     7.810
  34.320	        46	    1200	     6.782
  34.340	        47	    1200	     6.856
  34.360	        42	    1200	     6.481
  34.380	        37	    1200	     6.083
  34.400	        51	    1200	     7.141
  34.420	        42	    1200	     6.481
  34.440	        48	    1200	     6.928
  34.460	        49	    1200	     7.000
  34.480	        36	    1200	     6.000
  34.500	        43	    1200	     6.557
  34.520	        46	    1200	     6.782
  34.540	        38	    1200	     6.164
  34.560	        42	    1200	     6.481
  34.580	        43	    1200	     6.557
  34.600	        45	    1200	     6.708
  34.620	        40	    1200	     6.325
  34.640	        44	    1200	     6.633
  34.660	        41	    1200	     6.403
  34.680	        42	    1200	     6.481
  34.700	        42	    1200	     6.481
  34.720	        38	    1200	     6.164
  34.740	        59	    1200	     7.681
  34.760	        52	    1200	     7.211
  34.780	        53	    1200	     7.280
  34.800	        55	    1200	     7.416
  34.820	        47	    1200	     6.856
  34.840	        53	    1200	     7.280
  34.860	        47	    1200	     6.856
  34.880	        48	    1200	     6.928
  34.900	        50	    1200	     7.071
  34.920	        39	    1200	     6.245
  34.940	        51	    1200	     7.141
  34.960	        43	    1200	     6.557
  34.980	        52	    1200	     7.211
  35.000	        46	    1200	     6.782
  35.020	        29	    1200	     5.385
  35.040	        56	    1200	     7.483
  35.060	        51	    1200	     7.141
  35.080	        48	    1200	     6.928
  35.100	        42	    1200	     6.481
  35.120	        49	    1200	     7.000
  35.140	        44	    1200	     6.633
  35.160	        48	    1200	     6.928
  35.180	        33	    1200	     5.745
  35.200	        44	    1200	     6.633
  35.220	        49	    1200	     7.000
  35.240	        40	    1200	     6.325
  35.260	        50	    1200	     7.071
  35.280	        40	    1200	     6.325
  35.300	        59	    1200	     7.681
  35.320	        41	    1200	     6.403
  35.340	        45	    1200	     6.708
  35.360	        43	    1200	     6.557
  35.380	        50	    1200	     7.071
  35.400	        55	    1200	     7.416
  35.420	        45	    1200	     6.708
  35.440	        32	    1200	     5.657
  35.460	        42	    1200	     6.481
  35.480	        50	    1200	     7.071
  35.500	        44	    1200	     6.633
  35.520	        45	    1200	     6.708
  35.540	        45	    1200	     6.708
  35.560	        51	    1200	     7.141
  35.580	        46	    1200	     6.782
  35.600	        53	    1200	     7.280
  35.620	        50	    1200	     7.071
  35.640	        42	    1200	     6.481
  35.660	        30	    1200	     5.477
  35.680	        53	    1200	     7.280
  35.700	        41	    1200	     6.403
  35.720	        52	    1200	     7.211
  35.740	        42	    1200	     6.481
  35.760	        48	    1200	     6.928
  35.780	        39	    1200	     6.245
  35.800	        49	    1200	     7.000
  35.820	        36	    1200	     6.000
  35.840	        44	    1200	     6.633
  35.860	        39	    1200	     6.245
  35.880	        43	    1200	     6.557
  35.900	        46	    1200	     6.782
  35.920	        47	    1200	     6.856
  35.940	        49	    1200	     7.000
  35.960	        59	    1200	     7.681
  35.980	        39	    1200	     6.245
  36.000	        49	    1200	     7.000
  36.020	        52	    1200	     7.211
  36.040	        39	    1200	     6.245
  36.060	        49	    1200	     7.000
  36.080	        40	    1200	     6.325
  36.100	        35	    1200	     5.916
  36.120	        41	    1200	     6.403
  36.140	        43	    1200	     6.557
  36.160	        33	    1200	     5.745
  36.180	        37	    1200	     6.083
  36.200	        47	    1200	     6.856
  36.220	        32	    1200	     5.657
  36.240	        37	    1200	     6.083
  36.260	        42	    1200	     6.481
  36.280	        31	    1200	     5.568
  36.300	        28	    1200	     5.292
  36.320	        31	    1200	     5.568
  36.340	        31	    1200	     5.568
  36.360	        34	    1200	     5.831
  36.380	        28	    1200	     5.292
  36.400	        39	    1200	     6.245
  36.420	        29	    1200	     5.385
  36.440	        33	    1200	     5.745
  36.460	        40	    1200	     6.325
  36.480	        36	    1200	     6.000
  36.500	        39	    1200	     6.245
  36.520	        31	    1200	     5.568
  36.540	        34	    1200	     5.831
  36.560	        30	    1200	     5.477
  36.580	        41	    1200	     6.403
  36.600	        27	    1200	     5.196
  36.620	        35	    1200	     5.916
  36.640	        22	    1200	     4.690
  36.660	        31	    1200	     5.568
  36.680	        31	    1200	     5.568
  36.700	        33	    1200	     5.745
  36.720	        20	    1200	     4.472
  36.740	        35	    1200	     5.916
  36.760	        36	    1200	     6.000
  36.780	        28	    1200	     5.292
  36.800	        39	    1200	     6.245
  36.820	        38	    1200	     6.164
  36.840	        36	    1200	     6.000
  36.860	        34	    1200	     5.831
  36.880	        32	    1200	     5.657
  36.900	        35	    1200	     5.916
  36.920	        41	    1200	     6.403
  36.940	        46	    1200	     6.782
  36.960	        33	    1200	     5.745
  36.980	        39	    1200	     6.245
  37.000	        47	    1200	     6.856
  37.020	        45	    1200	     6.708
  37.040	        28	    1200	     5.292
  37.060	        45	    1200	     6.708
  37.080	        28	    1200	     5.292
  37.100	        51	    1200	     7.141
  37.120	        59	    1200	     7.681
  37.140	        40	    1200	     6.325
  37.160	        34	    1200	     5.831
  37.180	        42	    1200	     6.481
  37.200	        34	    1200	     5.831
  37.220	        41	    1200	     6.403
  37.240	        47	    1200	     6.856
  37.260	        29	    1200	     5.385
  37.280	        52	    1200	     7.211
  37.300	        42	    1200	     6.481
  37.320	        59	    1200	     7.681
  37.340	        39	    1200	     6.245
  37.360	        31	    1200	     5.568
  37.380	        25	    1200	     5.000
  37.400	        37	    1200	     6.083
  37.420	        43	    1200	     6.557
  37.440	        32	    1200	     5.657
  37.460	        37	    1200	     6.083
  37.480	        50	    1200	     7.071
  37.500	        31	    1200	     5.568
  37.520	        40	    1200	     6.325
  37.540	        41	    1200	     6.403
  37.560	        33	    1200	     5.745
  37.580	        46	    1200	     6.782
  37.600	        32	    1200	     5.657
  37.620	        41	    1200	     6.403
  37.640	        30	    1200	     5.477
  37.660	        27	    1200	     5.196
  37.680	        45	    1200	     6.708
  37.700	        26	    1200	     5.099
  37.720	        36	    1200	     6.000
  37.740	        31	    1200	     5.568
  37.760	        37	    1200	     6.083
  37.780	        49	    1200	     7.000
  37.800	        45	    1200	     6.708
  37.820	        40	    1200	     6.325
  37.840	        50	    1200	     7.071
  37.860	        32	    1200	     5.657
  37.880	        36	    1200	     6.000
  37.900	        39	    1200	     6.245
  37.920	        44	    1200	     6.633
  37.940	        37	    1200	     6.083
  37.960	        35	    1200	     5.916
  37.980	        33	    1200	     5.745
  38.000	        39	    1200	     6.245
  38.020	        36	    1200	     6.000
  38.040	        37	    1200	     6.083
  38.060	        24	    1200	     4.899
  38.080	        41	    1200	     6.403
  38.100	        32	    1200	     5.657
  38.120	        41	    1200	     6.403
  38.140	        35	    1200	     5.916
  38.160	        37	    1200	     6.083
  38.180	        33	    1200	     5.745
  38.200	        46	    1200	     6.782
  38.220	        32	    1200	     5.657
  38.240	        38	    1200	     6.164
  38.260	        37	    1200	     6.083
  38.280	        52	    1200	     7.211
  38.300	        44	    1200	     6.633
  38.320	        41	    1200	     6.403
  38.340	        36	    1200	     6.000
  38.360	        49	    1200	     7.000
  38.380	        32	    1200	     5.657
  38.400	        32	    1200	     5.657
  38.420	        37	    1200	     6.083
  38.440	        38	    1200	     6.164
  38.460	        35	    1200	     5.916
  38.480	        44	    1200	     6.633
  38.500	        46	    1200	     6.782
  38.520	        59	    1200	     7.681
  38.540	        53	    1200	     7.280
  38.560	        54	    1200	     7.348
  38.580	        37	    1200	     6.083
  38.600	        42	    1200	     6.481
  38.620	        47	    1200	     6.856
  38.640	        54	    1200	     7.348
  38.660	        54	    1200	     7.348
  38.680	        53	    1200	     7.280
  38.700	        51	    1200	     7.141
  38.720	        43	    1200	     6.557
  38.740	        46	    1200	     6.782
  38.760	        43	    1200	     6.557
  38.780	        36	    1200	     6.000
  38.800	        45	    1200	     6.708
  38.820	        49	    1200	     7.000
  38.840	        49	    1200	     7.000
  38.860	        34	    1200	     5.831
  38.880	        43	    1200	     6.557
  38.900	        38	    1200	     6.164
  38.920	        38	    1200	     6.164
  38.940	        36	    1200	     6.000
  38.960	        47	    1200	     6.856
  38.980	        40	    1200	     6.325
  39.000	        39	    1200	     6.245
  39.020	        43	    1200	     6.557
  39.040	        39	    1200	     6.245
  39.060	        43	    1200	     6.557
  39.080	        35	    1200	     5.916
  39.100	        34	    1200	     5.831
  39.120	        58	    1200	     7.616
  39.140	        51	    1200	     7.141
  39.160	        50	    1200	     7.071
  39.180	        45	    1200	     6.708
  39.200	        42	    1200	     6.481
  39.220	        38	    1200	     6.164
  39.240	        44	    1200	     6.633
  39.260	        50	    1200	     7.071
  39.280	        35	    1200	     5.916
  39.300	        42	    1200	     6.481
  39.320	        41	    1200	     6.403
  39.340	        48	    1200	     6.928
  39.360	        35	    1200	     5.916
  39.380	        44	    1200	     6.633
  39.400	        37	    1200	     6.083
  39.420	        45	    1200	     6.708
  39.440	        46	    1200	     6.782
  39.460	        60	    1200	     7.746
  39.480	        48	    1200	     6.928
  39.500	        50	    1200	     7.071
  39.520	        47	    1200	     6.856
  39.540	        51	    1200	     7.141
  39.560	        48	    1200	     6.928
  39.580	        56	    1200	     7.483
  39.600	        64	    1200	     8.000
  39.620	        44	    1200	     6.633
  39.640	        53	    1200	     7.280
  39.660	        56	    1200	     7.483
  39.680	        88	    1200	     9.381
  39.700	        67	    1200	     8.185
  39.720	        91	    1200	     9.539
  39.740	        82	    1200	     9.055
  39.760	        85	    1200	     9.220
  39.780	        95	    1200	     9.747
  39.800	        90	    1200	     9.487
  39.820	        66	    1200	     8.124
  39.840	       106	    1200	    10.296
  39.860	        79	    1200	     8.888
  39.880	        78	    1200	     8.832
  39.900	        86	    1200	     9.274
  39.920	        81	    1200	     9.000
  39.940	        83	    1200	     9.110
  39.960	        73	    1200	     8.544
  39.980	        69	    1200	     8.307
  40.000	        51	    1200	     7.141
  40.020	        60	    1200	     7.746
  40.040	        63	    1200	     7.937
  40.060	        68	    1200	     8.246
  40.080	        62	    1200	     7.874
  40.100	        61	    1200	     7.810
  40.120	        55	    1200	     7.416
  40.140	        55	    1200	     7.416
  40.160	        52	    1200	     7.211
  40.180	        49	    1200	     7.000
  40.200	        42	    1200	     6.481
  40.220	        61	    1200	     7.810
  40.240	        40	    1200	     6.325
  40.260	        38	    1200	     6.164
  40.280	        50	    1200	     7.071
  40.300	        38	    1200	     6.164
  40.320	        55	    1200	     7.416
  40.340	        40	    1200	     6.325
  40.360	        67	    1200	     8.185
  40.380	        38	    1200	     6.164
  40.400	        39	    1200	     6.245
  40.420	        32	    1200	     5.657
  40.440	        37	    1200	     6.083
  40.460	        34	    1200	     5.831
  40.480	        55	    1200	     7.416
  40.500	        40	    1200	     6.325
  40.520	        38	    1200	     6.164
  40.540	        43	    1200	     6.557
  40.560	        41	    1200	     6.403
  40.580	        34	    1200	     5.831
  40.600	        34	    1200	     5.831
  40.620	        35	    1200	     5.916
  40.640	        45	    1200	     6.708
  40.660	        34	    1200	     5.831
  40.680	        27	    1200	     5.196
  40.700	        40	    1200	     6.325
  40.720	        36	    1200	     6.000
  40.740	        42	    1200	     6.481
  40.760	        31	    1200	     5.568
  40.780	        38	    1200	     6.164
  40.800	        48	    1200	     6.928
  40.820	        58	    1200	     7.616
  40.840	        41	    1200	     6.403
  40.860	        44	    1200	     6.633
  40.880	        33	    1200	     5.745
  40.900	        49	    1200	     7.000
  40.920	        39	    1200	     6.245
  40.940	        41	    1200	     6.403
  40.960	        64	    1200	     8.000
  40.980	        60	    1200	     7.746
  41.000	        57	    1200	     7.550
  41.020	        67	    1200	     8.185
  41.040	        65	    1200	     8.062
  41.060	        81	    1200	     9.000
  41.080	        80	    1200	     8.944
  41.100	        67	    1200	     8.185
  41.120	        80	    1200	     8.944
  41.140	        86	    1200	     9.274
  41.160	        83	    1200	     9.110
  41.180	       104	    1200	    10.198
  41.200	        98	    1200	     9.899
  41.220	        91	    1200	     9.539
  41.240	        93	    1200	     9.644
  41.260	       101	    1200	    10.050
  41.280	        82	    1200	     9.055
  41.300	        84	    1200	     9.165
  41.320	        67	    1200	     8.185
  41.340	        73	    1200	     8.544
  41.360	        95	    1200	     9.747
  41.380	        89	    1200	     9.434
  41.400	        60	    1200	     7.746
  41.420	        83	    1200	     9.110
  41.440	        76	    1200	     8.718
  41.460	        72	    1200	     8.485
  41.480	        64	    1200	     8.000
  41.500	        72	    1200	     8.485
  41.520	        67	    1200	     8.185
  41.540	        65	    1200	     8.062
  41.560	        56	    1200	     7.483
  41.580	        66	    1200	     8.124
  41.600	        58	    1200	     7.616
  41.620	        63	    1200	     7.937
  41.640	        67	    1200	     8.185
  41.660	        52	    1200	     7.211
  41.680	        45	    1200	     6.708
  41.700	        44	    1200	     6.633
  41.720	        51	    1200	     7.141
  41.740	        44	    1200	     6.633
  41.760	        59	    1200	     7.681
  41.780	        41	    1200	     6.403
  41.800	        50	    1200	     7.071
  41.820	        44	    1200	     6.633
  41.840	        42	    1200	     6.481
  41.860	        37	    1200	     6.083
  41.880	        43	    1200	     6.557
  41.900	        50	    1200	     7.071
  41.920	        49	    1200	     7.000
  41.940	        40	    1200	     6.325
  41.960	        49	    1200	     7.000
  41.980	        42	    1200	     6.481
  42.000	        53	    1200	     7.280
  42.020	        60	    1200	     7.746
  42.040	        38	    1200	     6.164
  42.060	        47	    1200	     6.856
  42.080	        56	    1200	     7.483
  42.100	        64	    1200	     8.000
  42.120	        63	    1200	     7.937
  42.140	        65	    1200	     8.062
  42.160	        64	    1200	     8.000
  42.180	        68	    1200	     8.246
  42.200	        72	    1200	     8.485
  42.220	        54	    1200	     7.348
  42.240	        74	    1200	     8.602
  42.260	        53	    1200	     7.280
  42.280	        70	    1200	     8.367
  42.300	        63	    1200	     7.937
  42.320	        62	    1200	     7.874
  42.340	        39	    1200	     6.245
  42.360	        57	    1200	     7.550
  42.380	        50	    1200	     7.071
  42.400	        43	    1200	     6.557
  42.420	        40	    1200	     6.325
  42.440	        41	    1200	     6.403
  42.460	        26	    1200	     5.099
  42.480	        24	    1200	     4.899
  42.500	        39	    1200	     6.245
  42.520	        26	    1200	     5.099
  42.540	        24	    1200	     4.899
  42.560	        24	    1200	     4.899
  42.580	        33	    1200	     5.745
  42.600	        25	    1200	     5.000
  42.620	        19	    1200	     4.359
  42.640	        30	    1200	     5.477
  42.660	        32	    1200	     5.657
  42.680	        26	    1200	     5.099
  42.700	        25	    1200	     5.000
  42.720	        36	    1200	     6.000
  42.740	        30	    1200	     5.477
  42.760	        22	    1200	     4.690
  42.780	        21	    1200	     4.583
  42.800	        19	    1200	     4.359
  42.820	        23	    1200	     4.796
  42.840	        27	    1200	     5.196
  42.860	        26	    1200	     5.099
  42.880	        24	    1200	     4.899
  42.900	        23	    1200	     4.796
  42.920	        30	    1200	     5.477
  42.940	        31	    1200	     5.568
  42.960	        25	    1200	     5.000
  42.980	        30	    1200	     5.477
  43.000	        25	    1200	     5.000
  43.020	        29	    1200	     5.385
  43.040	        31	    1200	     5.568
  43.060	        33	    1200	     5.745
  43.080	        20	    1200	     4.472
  43.100	        23	    1200	     4.796
  43.120	        21	    1200	     4.583
  43.140	        23	    1200	     4.796
  43.160	        21	    1200	     4.583
  43.180	        22	    1200	     4.690
  43.200	        25	    1200	     5.000
  43.220	        31	    1200	     5.568
  43.240	        25	    1200	     5.000
  43.260	        26	    1200	     5.099
  43.280	        23	    1200	     4.796
  43.300	        22	    1200	     4.690
  43.320	        29	    1200	     5.385
  43.340	        24	    1200	     4.899
  43.360	        31	    1200	     5.568
  43.380	        21	    1200	     4.583
  43.400	        22	    1200	     4.690
  43.420	        28	    1200	     5.292
  43.440	        26	    1200	     5.099
  43.460	        26	    1200	     5.099
  43.480	        28	    1200	     5.292
  43.500	        33	    1200	     5.745
  43.520	        28	    1200	     5.292
  43.540	        27	    1200	     5.196
  43.560	        26	    1200	     5.099
  43.580	        29	    1200	     5.385
  43.600	        28	    1200	     5.292
  43.620	        34	    1200	     5.831
  43.640	        49	    1200	     7.000
  43.660	        26	    1200	     5.099
  43.680	        33	    1200	     5.745
  43.700	        31	    1200	     5.568
  43.720	        40	    1200	     6.325
  43.740	        39	    1200	     6.245
  43.760	        38	    1200	     6.164
  43.780	        31	    1200	     5.568
  43.800	        48	    1200	     6.928
  43.820	        36	    1200	     6.000
  43.840	        53	    1200	     7.280
  43.860	        45	    1200	     6.708
  43.880	        35	    1200	     5.916
  43.900	        50	    1200	     7.071
  43.920	        40	    1200	     6.325
  43.940	        53	    1200	     7.280
  43.960	        30	    1200	     5.477
  43.980	        38	    1200	     6.164
  44.000	        47	    1200	     6.856
  44.020	        43	    1200	     6.557
  44.040	        44	    1200	     6.633
  44.060	        44	    1200	     6.633
  44.080	        40	    1200	     6.325
  44.100	        40	    1200	     6.325
  44.120	        35	    1200	     5.916
  44.140	        36	    1200	     6.000
  44.160	        51	    1200	     7.141
  44.180	        35	    1200	     5.916
  44.200	        50	    1200	     7.071
  44.220	        47	    1200	     6.856
  44.240	        47	    1200	     6.856
  44.260	        53	    1200	     7.280
  44.280	        58	    1200	     7.616
  44.300	        66	    1200	     8.124
  44.320	        58	    1200	     7.616
  44.340	        69	    1200	     8.307
  44.360	        87	    1200	     9.327
  44.380	        81	    1200	     9.000
  44.400	       100	    1200	    10.000
  44.420	       105	    1200	    10.247
  44.440	       139	    1200	    11.790
  44.460	       149	    1200	    12.207
  44.480	       174	    1200	    13.191
  44.500	       197	    1200	    14.036
  44.520	       219	    1200	    14.799
  44.540	       251	    1200	    15.843
  44.560	       261	    1200	    16.155
  44.580	       257	    1200	    16.031
  44.600	       287	    1200	    16.941
  44.620	       228	    1200	    15.100
  44.640	       259	    1200	    16.093
  44.660	       220	    1200	    14.832
  44.680	       202	    1200	    14.213
  44.700	       182	    1200	    13.491
  44.720	       194	    1200	    13.928
  44.740	       153	    1200	    12.369
  44.760	       152	    1200	    12.329
  44.780	       127	    1200	    11.269
  44.800	       120	    1200	    10.954
  44.820	       106	    1200	    10.296
  44.840	        82	    1200	     9.055
  44.860	        89	    1200	     9.434
  44.880	        64	    1200	     8.000
  44.900	        75	    1200	     8.660
  44.920	        92	    1200	     9.592
  44.940	        66	    1200	     8.124
  44.960	        77	    1200	     8.775
  44.980	        77	    1200	     8.775
  45.000	        71	    1200	     8.426
  45.020	        65	    1200	     8.062
  45.040	        52	    1200	     7.211
  45.060	        61	    1200	     7.810
  45.080	        65	    1200	     8.062
  45.100	        55	    1200	     7.416
  45.120	        63	    1200	     7.937
  45.140	        65	    1200	     8.062
  45.160	        56	    1200	     7.483
  45.180	        66	    1200	     8.124
  45.200	        53	    1200	     7.280
  45.220	        64	    1200	     8.000
  45.240	        64	    1200	     8.000
  45.260	        83	    1200	     9.110
  45.280	        70	    1200	     8.367
  45.300	        74	    1200	     8.602
  45.320	        73	    1200	     8.544
  45.340	        64	    1200	     8.000
  45.360	        64	    1200	     8.000
  45.380	        69	    1200	     8.307
  45.400	        73	    1200	     8.544
  45.420	        74	    1200	     8.602
  45.440	        63	    1200	     7.937
  45.460	        74	    1200	     8.602
  45.480	        60	    1200	     7.746
  45.500	        72	    1200	     8.485
  45.520	        61	    1200	     7.810
  45.540	        58	    1200	     7.616
  45.560	        56	    1200	     7.483
  45.580	        69	    1200	     8.307
  45.600	        58	    1200	     7.616
  45.620	        73	    1200	     8.544
  45.640	        65	    1200	     8.062
  45.660	        74	    1200	     8.602
  45.680	        55	    1200	     7.416
  45.700	        76	    1200	     8.718
  45.720	        72	    1200	     8.485
  45.740	        78	    1200	     8.832
  45.760	        62	    1200	     7.874
  45.780	        70	    1200	     8.367
  45.800	        96	    1200	     9.798
  45.820	        64	    1200	     8.000
  45.840	        64	    1200	     8.000
  45.860	        71	    1200	     8.426
  45.880	        73	    1200	     8.544
  45.900	        72	    1200	     8.485
  45.920	        77	    1200	     8.775
  45.940	        84	    1200	     9.165
  45.960	        71	    1200	     8.426
  45.980	        87	    1200	     9.327
  46.000	        83	    1200	     9.110
  46.020	       114	    1200	    10.677
  46.040	        81	    1200	     9.000
  46.060	       106	    1200	    10.296
  46.080	        87	    1200	     9.327
  46.100	       105	    1200	    10.247
  46.120	       115	    1200	    10.724
  46.140	       137	    1200	    11.705
  46.160	       146	    1200	    12.083
  46.180	       157	    1200	    12.530
  46.200	       153	    1200	    12.369
  46.220	       175	    1200	    13.229
  46.240	       176	    1200	    13.266
  46.260	       224	    1200	    14.967
  46.280	       225	    1200	    15.000
  46.300	       247	    1200	    15.716
  46.320	       254	    1200	    15.937
  46.340	       257	    1200	    16.031
  46.360	       321	    1200	    17.916
  46.380	       311	    1200	    17.635
  46.400	       336	    1200	    18.330
  46.420	       309	    1200	    17.578
  46.440	       336	    1200	    18.330
  46.460	       362	    1200	    19.026
  46.480	       373	    1200	    19.313
  46.500	       351	    1200	    18.735
  46.520	       345	    1200	    18.574
  46.540	       317	    1200	    17.804
  46.560	       300	    1200	    17.321
  46.580	       339	    1200	    18.412
  46.600	       311	    1200	    17.635
  46.620	       291	    1200	    17.059
  46.640	       284	    1200	    16.852
  46.660	       232	    1200	    15.232
  46.680	       205	    1200	    14.318
  46.700	       218	    1200	    14.765
  46.720	       199	    1200	    14.107
  46.740	       212	    1200	    14.560
  46.760	       175	    1200	    13.229
  46.780	       209	    1200	    14.457
  46.800	       155	    1200	    12.450
  46.820	       183	    1200	    13.528
  46.840	       164	    1200	    12.806
  46.860	       155	    1200	    12.450
  46.880	       116	    1200	    10.770
  46.900	       121	    1200	    11.000
  46.920	       134	    1200	    11.576
  46.940	       127	    1200	    11.269
  46.960	       116	    1200	    10.770
  46.980	       107	    1200	    10.344
  47.000	       110	    1200	    10.488
  47.020	        93	    1200	     9.644
  47.040	       108	    1200	    10.392
  47.060	        89	    1200	     9.434
  47.080	        83	    1200	     9.110
  47.100	        87	    1200	     9.327
  47.120	        75	    1200	     8.660
  47.140	        88	    1200	     9.381
  47.160	        47	    1200	     6.856
  47.180	        59	    1200	     7.681
  47.200	        67	    1200	     8.185
  47.220	        41	    1200	     6.403
  47.240	        51	    1200	     7.141
  47.260	        49	    1200	     7.000
  47.280	        41	    1200	     6.403
  47.300	        42	    1200	     6.481
  47.320	        40	    1200	     6.325
  47.340	        46	    1200	     6.782
  47.360	        44	    1200	     6.633
  47.380	        30	    1200	     5.477
  47.400	        31	    1200	     5.568
  47.420	        36	    1200	     6.000
  47.440	        30	    1200	     5.477
  47.460	        31	    1200	     5.568
  47.480	        32	    1200	     5.657
  47.500	        42	    1200	     6.481
  47.520	        30	    1200	     5.477
  47.540	        27	    1200	     5.196
  47.560	        30	    1200	     5.477
  47.580	        21	    1200	     4.583
  47.600	        28	    1200	     5.292
  47.620	        25	    1200	     5.000
  47.640	        29	    1200	     5.385
  47.660	        33	    1200	     5.745
  47.680	        19	    1200	     4.359
  47.700	        18	    1200	     4.243
  47.720	        30	    1200	     5.477
  47.740	        29	    1200	     5.385
  47.760	        29	    1200	     5.385
  47.780	        30	    1200	     5.477
  47.800	        30	    1200	     5.477
  47.820	        27	    1200	     5.196
  47.840	        34	    1200	     5.831
  47.860	        38	    1200	     6.164
  47.880	        19	    1200	     4.359
  47.900	        26	    1200	     5.099
  47.920	        29	    1200	     5.385
  47.940	        27	    1200	     5.196
  47.960	        22	    1200	     4.690
  47.980	        31	    1200	     5.568
  48.000	        31	    1200	     5.568
  48.020	        34	    1200	     5.831
  48.040	        31	    1200	     5.568
  48.060	        24	    1200	     4.899
  48.080	        27	    1200	     5.196
  48.100	        25	    1200	     5.000
  48.120	        39	    1200	     6.245
  48.140	        25	    1200	     5.000
  48.160	        32	    1200	     5.657
  48.180	        25	    1200	     5.000
  48.200	        25	    1200	     5.000
  48.220	        20	    1200	     4.472
  48.240	        27	    1200	     5.196
  48.260	        25	    1200	     5.000
  48.280	        21	    1200	     4.583
  48.300	        22	    1200	     4.690
  48.320	        27	    1200	     5.196
  48.340	        30	    1200	     5.477
  48.360	        18	    1200	     4.243
  48.380	        22	    1200	     4.690
  48.400	        29	    1200	     5.385
  48.420	        24	    1200	     4.899
  48.440	        18	    1200	     4.243
  48.460	        16	    1200	     4.000
  48.480	        22	    1200	     4.690
  48.500	        20	    1200	     4.472
  48.520	        22	    1200	     4.690
  48.540	        19	    1200	     4.359
  48.560	        14	    1200	     3.742
  48.580	        15	    1200	     3.873
  48.600	        14	    1200	     3.742
  48.620	        21	    1200	     4.583
  48.640	        21	    1200	     4.583
  48.660	        15	    1200	     3.873
  48.680	        19	    1200	     4.359
  48.700	        11	    1200	     3.317
  48.720	        18	    1200	     4.243
  48.740	        23	    1200	     4.796
  48.760	        14	    1200	     3.742
  48.780	        23	    1200	     4.796
  48.800	        26	    1200	     5.099
  48.820	        23	    1200	     4.796
  48.840	        25	    1200	     5.000
  48.860	        20	    1200	     4.472
  48.880	        22	    1200	     4.690
  48.900	        21	    1200	     4.583
  48.920	        20	    1200	     4.472
  48.940	        17	    1200	     4.123
  48.960	        13	    1200	     3.606
  48.980	        19	    1200	     4.359
  49.000	        23	    1200	     4.796
  49.020	        10	    1200	     3.162
  49.040	        13	    1200	     3.606
  49.060	        10	    1200	     3.162
  49.080	        13	    1200	     3.606
  49.100	        21	    1200	     4.583
  49.120	        13	    1200	     3.606
  49.140	        12	    1200	     3.464
  49.160	        18	    1200	     4.243
  49.180	        12	    1200	     3.464
  49.200	        21	    1200	     4.583
  49.220	        16	    1200	     4.000
  49.240	        14	    1200	     3.742
  49.260	        18	    1200	     4.243
  49.280	        20	    1200	     4.472
  49.300	        21	    1200	     4.583
  49.320	        14	    1200	     3.742
  49.340	        12	    1200	     3.464
  49.360	        18	    1200	     4.243
  49.380	        23	    1200	     4.796
  49.400	        13	    1200	     3.606
  49.420	        18	    1200	     4.243
  49.440	        19	    1200	     4.359
  49.460	        15	    1200	     3.873
  49.480	        16	    1200	     4.000
  49.500	        10	    1200	     3.162
  49.520	        18	    1200	     4.243
  49.540	        22	    1200	     4.690
  49.560	        21	    1200	     4.583
  49.580	        17	    1200	     4.123
  49.600	        17	    1200	     4.123
  49.620	        12	    1200	     3.464
  49.640	        17	    1200	     4.123
  49.660	        13	    1200	     3.606
  49.680	        12	    1200	     3.464
  49.700	        16	    1200	     4.000
  49.720	        16	    1200	     4.000
  49.740	        17	    1200	     4.123
  49.760	        14	    1200	     3.742
  49.780	        11	    1200	     3.317
  49.800	        11	    1200	     3.317
  49.820	        12	    1200	     3.464
  49.840	        18	    1200	     4.243
  49.860	        24	    1200	     4.899
  49.880	        21	    1200	     4.583
  49.900	        14	    1200	     3.742
  49.920	        19	    1200	     4.359
  49.940	        22	    1200	     4.690
  49.960	        19	    1200	     4.359
  49.980	        24	    1200	     4.899
  50.000	        17	    1200	     4.123
  50.020	        17	    1200	     4.123
  50.040	        11	    1200	     3.317
  50.060	        15	    1200	     3.873
  50.080	        16	    1200	     4.000
  50.100	        16	    1200	     4.000
  50.120	        16	    1200	     4.000
  50.140	        21	    1200	     4.583
  50.160	        17	    1200	     4.123
  50.180	        13	    1200	     3.606
  50.200	        18	    1200	     4.243
  50.220	        14	    1200	     3.742
  50.240	        19	    1200	     4.359
  50.260	        23	    1200	     4.796
  50.280	        23	    1200	     4.796
  50.300	        14	    1200	     3.742
  50.320	        18	    1200	     4.243
  50.340	        16	    1200	     4.000
  50.360	        22	    1200	     4.690
  50.380	        20	    1200	     4.472
  50.400	        21	    1200	     4.583
  50.420	        23	    1200	     4.796
  50.440	        15	    1200	     3.873
  50.460	        23	    1200	     4.796
  50.480	        21	    1200	     4.583
  50.500	        14	    1200	     3.742
  50.520	        12	    1200	     3.464
  50.540	        11	    1200	     3.317
  50.560	        15	    1200	     3.873
  50.580	        22	    1200	     4.690
  50.600	        19	    1200	     4.359
  50.620	        21	    1200	     4.583
  50.640	        15	    1200	     3.873
  50.660	        19	    1200	     4.359
  50.680	        13	    1200	     3.606
  50.700	        16	    1200	     4.000
  50.720	        14	    1200	     3.742
  50.740	        17	    1200	     4.123
  50.760	        17	    1200	     4.123
  50.780	        17	    1200	     4.123
  50.800	        13	    1200	     3.606
  50.820	        13	    1200	     3.606
  50.840	        17	    1200	     4.123
  50.860	        23	    1200	     4.796
  50.880	        14	    1200	     3.742
  50.900	        20	    1200	     4.472
  50.920	        23	    1200	     4.796
  50.940	        12	    1200	     3.464
  50.960	        15	    1200	     3.873
  50.980	        22	    1200	     4.690
  51.000	        12	    1200	     3.464
  51.020	        19	    1200	     4.359
  51.040	        20	    1200	     4.472
  51.060	        18	    1200	     4.243
  51.080	        15	    1200	     3.873
  51.100	        18	    1200	     4.243
  51.120	        19	    1200	     4.359
  51.140	        17	    1200	     4.123
  51.160	        24	    1200	     4.899
  51.180	        17	    1200	     4.123
  51.200	        15	    1200	     3.873
  51.220	        17	    1200	     4.123
  51.240	        18	    1200	     4.243
  51.260	        18	    1200	     4.243
  51.280	        23	    1200	     4.796
  51.300	        17	    1200	     4.123
  51.320	        21	    1200	     4.583
  51.340	        15	    1200	     3.873
  51.360	        18	    1200	     4.243
  51.380	        17	    1200	     4.123
  51.400	        13	    1200	     3.606
  51.420	        18	    1200	     4.243
  51.440	        19	    1200	     4.359
  51.460	        16	    1200	     4.000
  51.480	        20	    1200	     4.472
  51.500	        17	    1200	     4.123
  51.520	        20	    1200	     4.472
  51.540	        18	    1200	     4.243
  51.560	        18	    1200	     4.243
  51.580	        23	    1200	     4.796
  51.600	        20	    1200	     4.472
  51.620	        18	    1200	     4.243
  51.640	        19	    1200	     4.359
  51.660	        25	    1200	     5.000
  51.680	        25	    1200	     5.000
  51.700	        22	    1200	     4.690
  51.720	        14	    1200	     3.742
  51.740	        27	    1200	     5.196
  51.760	        24	    1200	     4.899
  51.780	        15	    1200	     3.873
  51.800	        14	    1200	     3.742
  51.820	        18	    1200	     4.243
  51.840	        19	    1200	     4.359
  51.860	        18	    1200	     4.243
  51.880	        14	    1200	     3.742
  51.900	        26	    1200	     5.099
  51.920	        30	    1200	     5.477
  51.940	        15	    1200	     3.873
  51.960	         9	    1200	     3.000
  51.980	        16	    1200	     4.000
  52.000	        15	    1200	     3.873
  52.020	        26	    1200	     5.099
  52.040	        28	    1200	     5.292
  52.060	        18	    1200	     4.243
  52.080	        17	    1200	     4.123
  52.100	        31	    1200	     5.568
  52.120	        15	    1200	     3.873
  52.140	        27	    1200	     5.196
  52.160	        21	    1200	     4.583
  52.180	        18	    1200	     4.243
  52.200	        26	    1200	     5.099
  52.220	        30	    1200	     5.477
  52.240	        22	    1200	     4.690
  52.260	        26	    1200	     5.099
  52.280	        26	    1200	     5.099
  52.300	        30	    1200	     5.477
  52.320	        30	    1200	     5.477
  52.340	        22	    1200	     4.690
  52.360	        23	    1200	     4.796
  52.380	        22	    1200	     4.690
  52.400	        29	    1200	     5.385
  52.420	        23	    1200	     4.796
  52.440	        30	    1200	     5.477
  52.460	        26	    1200	     5.099
  52.480	        23	    1200	     4.796
  52.500	        28	    1200	     5.292
  52.520	        34	    1200	     5.831
  52.540	        24	    1200	     4.899
  52.560	        38	    1200	     6.164
  52.580	        33	    1200	     5.745
  52.600	        23	    1200	     4.796
  52.620	        50	    1200	     7.071
  52.640	        30	    1200	     5.477
  52.660	        30	    1200	     5.477
  52.680	        21	    1200	     4.583
  52.700	        40	    1200	     6.325
  52.720	        24	    1200	     4.899
  52.740	        27	    1200	     5.196
  52.760	        20	    1200	     4.472
  52.780	        29	    1200	     5.385
  52.800	        21	    1200	     4.583
  52.820	        32	    1200	     5.657
  52.840	        39	    1200	     6.245
  52.860	        31	    1200	     5.568
  52.880	        20	    1200	     4.472
  52.900	        29	    1200	     5.385
  52.920	        29	    1200	     5.385
  52.940	        19	    1200	     4.359
  52.960	        28	    1200	     5.292
  52.980	        30	    1200	     5.477
  53.000	        25	    1200	     5.000
  53.020	        32	    1200	     5.657
  53.040	        33	    1200	     5.745
  53.060	        27	    1200	     5.196
  53.080	        31	    1200	     5.568
  53.100	        23	    1200	     4.796
  53.120	        24	    1200	     4.899
  53.140	        25	    1200	     5.000
  53.160	        25	    1200	     5.000
  53.180	        28	    1200	     5.292
  53.200	        24	    1200	     4.899
  53.220	        27	    1200	     5.196
  53.240	        29	    1200	     5.385
  53.260	        32	    1200	     5.657
  53.280	        27	    1200	     5.196
  53.300	        22	    1200	     4.690
  53.320	        35	    1200	     5.916
  53.340	        25	    1200	     5.000
  53.360	        22	    1200	     4.690
  53.380	        45	    1200	     6.708
  53.400	        35	    1200	     5.916
  53.420	        36	    1200	     6.000
  53.440	        30	    1200	     5.477
  53.460	        31	    1200	     5.568
  53.480	        34	    1200	     5.831
  53.500	        25	    1200	     5.000
  53.520	        22	    1200	     4.690
  53.540	        24	    1200	     4.899
  53.560	        22	    1200	     4.690
  53.580	        29	    1200	     5.385
  53.600	        32	    1200	     5.657
  53.620	        25	    1200	     5.000
  53.640	        33	    1200	     5.745
  53.660	        30	    1200	     5.477
  53.680	        29	    1200	     5.385
  53.700	        28	    1200	     5.292
  53.720	        21	    1200	     4.583
  53.740	        24	    1200	     4.899
  53.760	        21	    1200	     4.583
  53.780	        22	    1200	     4.690
  53.800	        21	    1200	     4.583
  53.820	        26	    1200	     5.099
  53.840	        20	    1200	     4.472
  53.860	        19	    1200	     4.359
  53.880	        16	    1200	     4.000
  53.900	        21	    1200	     4.583
  53.920	        23	    1200	     4.796
  53.940	        20	    1200	     4.472
  53.960	        31	    1200	     5.568
  53.980	        22	    1200	     4.690
  54.000	        18	    1200	     4.243
  54.020	        21	    1200	     4.583
  54.040	        17	    1200	     4.123
  54.060	        23	    1200	     4.796
  54.080	        31	    1200	     5.568
  54.100	        28	    1200	     5.292
  54.120	        33	    1200	     5.745
  54.140	        28	    1200	     5.292
  54.160	        25	    1200	     5.000
  54.180	        25	    1200	     5.000
  54.200	        32	    1200	     5.657
  54.220	        21	    1200	     4.583
  54.240	        33	    1200	     5.745
  54.260	        22	    1200	     4.690
  54.280	        28	    1200	     5.292
  54.300	        28	    1200	     5.292
  54.320	        27	    1200	     5.196
  54.340	        27	    1200	     5.196
  54.360	        35	    1200	     5.916
  54.380	        16	    1200	     4.000
  54.400	        30	    1200	     5.477
  54.420	        22	    1200	     4.690
  54.440	        14	    1200	     3.742
  54.460	        36	    1200	     6.000
  54.480	        33	    1200	     5.745
  54.500	        25	    1200	     5.000
  54.520	        19	    1200	     4.359
  54.540	        23	    1200	     4.796
  54.560	        11	    1200	     3.317
  54.580	        22	    1200	     4.690
  54.600	        23	    1200	     4.796
  54.620	        18	    1200	     4.243
  54.640	        23	    1200	     4.796
  54.660	        20	    1200	     4.472
  54.680	        28	    1200	     5.292
  54.700	        24	    1200	     4.899
  54.720	        22	    1200	     4.690
  54.740	        21	    1200	     4.583
  54.760	        25	    1200	     5.000
  54.780	        23	    1200	     4.796
  54.800	        28	    1200	     5.292
  54.820	        25	    1200	     5.000
  54.840	        23	    1200	     4.796
  54.860	        24	    1200	     4.899
  54.880	        30	    1200	     5.477
  54.900	        22	    1200	     4.690
  54.920	        29	    1200	     5.385
  54.940	        23	    1200	     4.796
  54.960	        25	    1200	     5.000
  54.980	        38	    1200	     6.164
  55.000	        29	    1200	     5.385
  55.020	        20	    1200	     4.472
  55.040	        34	    1200	     5.831
  55.060	        33	    1200	     5.745
  55.080	        26	    1200	     5.099
  55.100	        40	    1200	     6.325
  55.120	        25	    1200	     5.000
  55.140	        28	    1200	     5.292
  55.160	        31	    1200	     5.568
  55.180	        31	    1200	     5.568
  55.200	        26	    1200	     5.099
  55.220	        25	    1200	     5.000
  55.240	        35	    1200	     5.916
  55.260	        23	    1200	     4.796
  55.280	        26	    1200	     5.099
  55.300	        26	    1200	     5.099
  55.320	        38	    1200	     6.164
  55.340	        38	    1200	     6.164
  55.360	        38	    1200	     6.164
  55.380	        38	    1200	     6.164
  55.400	        39	    1200	     6.245
  55.420	        34	    1200	     5.831
  55.440	        35	    1200	     5.916
  55.460	        40	    1200	     6.325
  55.480	        44	    1200	     6.633
  55.500	        30	    1200	     5.477
  55.520	        35	    1200	     5.916
  55.540	        34	    1200	     5.831
  55.560	        29	    1200	     5.385
  55.580	        44	    1200	     6.633
  55.600	        39	    1200	     6.245
  55.620	        35	    1200	     5.916
  55.640	        38	    1200	     6.164
  55.660	        44	    1200	     6.633
  55.680	        37	    1200	     6.083
  55.700	        46	    1200	     6.782
  55.720	        45	    1200	     6.708
  55.740	        39	    1200	     6.245
  55.760	        44	    1200	     6.633
  55.780	        46	    1200	     6.782
  55.800	        39	    1200	     6.245
  55.820	        38	    1200	     6.164
  55.840	        42	    1200	     6.481
  55.860	        39	    1200	     6.245
  55.880	        40	    1200	     6.325
  55.900	        42	    1200	     6.481
  55.920	        35	    1200	     5.916
  55.940	        35	    1200	     5.916
  55.960	        32	    1200	     5.657
  55.980	        34	    1200	     5.831
  56.000	        26	    1200	     5.099
  56.020	        35	    1200	     5.916
  56.040	        52	    1200	     7.211
  56.060	        46	    1200	     6.782
  56.080	        44	    1200	     6.633
  56.100	        32	    1200	     5.657
  56.120	        36	    1200	     6.000
  56.140	        45	    1200	     6.708
  56.160	        61	    1200	     7.810
  56.180	        45	    1200	     6.708
  56.200	        53	    1200	     7.280
  56.220	        44	    1200	     6.633
  56.240	        55	    1200	     7.416
  56.260	        53	    1200	     7.280
  56.280	        63	    1200	     7.937
  56.300	        53	    1200	     7.280
  56.320	        45	    1200	     6.708
  56.340	        72	    1200	     8.485
  56.360	        60	    1200	     7.746
  56.380	        71	    1200	     8.426
  56.400	        51	    1200	     7.141
  56.420	        55	    1200	     7.416
  56.440	        47	    1200	     6.856
  56.460	        49	    1200	     7.000
  56.480	        51	    1200	     7.141
  56.500	        55	    1200	     7.416
  56.520	        61	    1200	     7.810
  56.540	        53	    1200	     7.280
  56.560	        58	    1200	     7.616
  56.580	        54	    1200	     7.348
  56.600	        40	    1200	     6.325
  56.620	        64	    1200	     8.000
  56.640	        46	    1200	     6.782
  56.660	        42	    1200	     6.481
  56.680	        50	    1200	     7.071
  56.700	        46	    1200	     6.782
  56.720	        60	    1200	     7.746
  56.740	        53	    1200	     7.280
  56.760	        47	    1200	     6.856
  56.780	        56	    1200	     7.483
  56.800	        58	    1200	     7.616
  56.820	        53	    1200	     7.280
  56.840	        58	    1200	     7.616
  56.860	        66	    1200	     8.124
  56.880	        55	    1200	     7.416
  56.900	        45	    1200	     6.708
  56.920	        60	    1200	     7.746
  56.940	        73	    1200	     8.544
  56.960	        69	    1200	     8.307
  56.980	        71	    1200	     8.426
  57.000	        70	    1200	     8.367
  57.020	        63	    1200	     7.937
  57.040	        76	    1200	     8.718
  57.060	        82	    1200	     9.055
  57.080	        83	    1200	     9.110
  57.100	        83	    1200	     9.110
  57.120	       101	    1200	    10.050
  57.140	       111	    1200	    10.536
  57.160	        92	    1200	     9.592
  57.180	       108	    1200	    10.392
  57.200	       139	    1200	    11.790
  57.220	       125	    1200	    11.180
  57.240	       126	    1200	    11.225
  57.260	       148	    1200	    12.166
  57.280	       185	    1200	    13.601
  57.300	       187	    1200	    13.675
  57.320	       191	    1200	    13.820
  57.340	       230	    1200	    15.166
  57.360	       238	    1200	    15.427
  57.380	       261	    1200	    16.155
  57.400	       258	    1200	    16.062
  57.420	       255	    1200	    15.969
  57.440	       222	    1200	    14.900
  57.460	       300	    1200	    17.321
  57.480	       284	    1200	    16.852
  57.500	       279	    1200	    16.703
  57.520	       281	    1200	    16.763
  57.540	       307	    1200	    17.521
  57.560	       285	    1200	    16.882
  57.580	       275	    1200	    16.583
  57.600	       274	    1200	    16.553
  57.620	       261	    1200	    16.155
  57.640	       249	    1200	    15.780
  57.660	       262	    1200	    16.186
  57.680	       227	    1200	    15.067
  57.700	       243	    1200	    15.588
  57.720	       213	    1200	    14.595
  57.740	       200	    1200	    14.142
  57.760	       214	    1200	    14.629
  57.780	       199	    1200	    14.107
  57.800	       216	    1200	    14.697
  57.820	       172	    1200	    13.115
  57.840	       159	    1200	    12.610
  57.860	       173	    1200	    13.153
  57.880	       187	    1200	    13.675
  57.900	       172	    1200	    13.115
  57.920	       143	    1200	    11.958
  57.940	       142	    1200	    11.916
  57.960	       147	    1200	    12.124
  57.980	       125	    1200	    11.180
  58.000	       121	    1200	    11.000
  58.020	       118	    1200	    10.863
  58.040	       121	    1200	    11.000
  58.060	       103	    1200	    10.149
  58.080	        99	    1200	     9.950
  58.100	        99	    1200	     9.950
  58.120	       104	    1200	    10.198
  58.140	       102	    1200	    10.100
  58.160	        92	    1200	     9.592
  58.180	        77	    1200	     8.775
  58.200	        95	    1200	     9.747
  58.220	        83	    1200	     9.110
  58.240	        94	    1200	     9.695
  58.260	        88	    1200	     9.381
  58.280	        71	    1200	     8.426
  58.300	        70	    1200	     8.367
  58.320	        74	    1200	     8.602
  58.340	        84	    1200	     9.165
  58.360	        60	    1200	     7.746
  58.380	        57	    1200	     7.550
  58.400	        66	    1200	     8.124
  58.420	        76	    1200	     8.718
  58.440	        66	    1200	     8.124
  58.460	        65	    1200	     8.062
  58.480	        61	    1200	     7.810
  58.500	        75	    1200	     8.660
  58.520	        73	    1200	     8.544
  58.540	        64	    1200	     8.000
  58.560	        47	    1200	     6.856
  58.580	        66	    1200	     8.124
  58.600	        53	    1200	     7.280
  58.620	        56	    1200	     7.483
  58.640	        55	    1200	     7.416
  58.660	        55	    1200	     7.416
  58.680	        60	    1200	     7.746
  58.700	        45	    1200	     6.708
  58.720	        48	    1200	     6.928
  58.740	        49	    1200	     7.000
  58.760	        62	    1200	     7.874
  58.780	        54	    1200	     7.348
  58.800	        58	    1200	     7.616
  58.820	        51	    1200	     7.141
  58.840	        53	    1200	     7.280
  58.860	        67	    1200	     8.185
  58.880	        52	    1200	     7.211
  58.900	        48	    1200	     6.928
  58.920	        47	    1200	     6.856
  58.940	        36	    1200	     6.000
  58.960	        53	    1200	     7.280
  58.980	        41	    1200	     6.403
  59.000	        35	    1200	     5.916
  59.020	        47	    1200	     6.856
  59.040	        38	    1200	     6.164
  59.060	        49	    1200	     7.000
  59.080	        43	    1200	     6.557
  59.100	        31	    1200	     5.568
  59.120	        35	    1200	     5.916
  59.140	        46	    1200	     6.782
  59.160	        40	    1200	     6.325
  59.180	        35	    1200	     5.916
  59.200	        42	    1200	     6.481
  59.220	        36	    1200	     6.000
  59.240	        34	    1200	     5.831
  59.260	        30	    1200	     5.477
  59.280	        57	    1200	     7.550
  59.300	        37	    1200	     6.083
  59.320	        38	    1200	     6.164
  59.340	        43	    1200	     6.557
  59.360	        40	    1200	     6.325
  59.380	        35	    1200	     5.916
  59.400	        24	    1200	     4.899
  59.420	        29	    1200	     5.385
  59.440	        37	    1200	     6.083
  59.460	        32	    1200	     5.657
  59.480	        32	    1200	     5.657
  59.500	        39	    1200	     6.245
  59.520	        45	    1200	     6.708
  59.540	        43	    1200	     6.557
  59.560	        28	    1200	     5.292
  59.580	        34	    1200	     5.831
  59.600	        29	    1200	     5.385
  59.620	        39	    1200	     6.245
  59.640	        32	    1200	     5.657
  59.660	        39	    1200	     6.245
  59.680	        34	    1200	     5.831
  59.700	        36	    1200	     6.000
  59.720	        29	    1200	     5.385
  59.740	        35	    1200	     5.916
  59.760	        27	    1200	     5.196
  59.780	        33	    1200	     5.745
  59.800	        30	    1200	     5.477
  59.820	        29	    1200	     5.385
  59.840	        28	    1200	     5.292
  59.860	        23	    1200	     4.796
  59.880	        23	    1200	     4.796
  59.900	        27	    1200	     5.196
  59.920	        28	    1200	     5.292
  59.940	        42	    1200	     6.481
  59.960	        35	    1200	     5.916
  59.980	        24	    1200	     4.899
  60.000	        25	    1200	     5.000
  60.020	        34	    1200	     5.831
  60.040	        24	    1200	     4.899
  60.060	        34	    1200	     5.831
  60.080	        33	    1200	     5.745
  60.100	        22	    1200	     4.690
  60.120	        43	    1200	     6.557
  60.140	        31	    1200	     5.568
  60.160	        25	    1200	     5.000
  60.180	        25	    1200	     5.000
  60.200	        18	    1200	     4.243
  60.220	        34	    1200	     5.831
  60.240	        23	    1200	     4.796
  60.260	        28	    1200	     5.292
  60.280	        33	    1200	     5.745
  60.300	        35	    1200	     5.916
  60.320	        19	    1200	     4.359
  60.340	        27	    1200	     5.196
  60.360	        25	    1200	     5.000
  60.380	        27	    1200	     5.196
  60.400	        28	    1200	     5.292
  60.420	        26	    1200	     5.099
  60.440	        31	    1200	     5.568
  60.460	        31	    1200	     5.568
  60.480	        26	    1200	     5.099
  60.500	        31	    1200	     5.568
  60.520	        41	    1200	     6.403
  60.540	        16	    1200	     4.000
  60.560	        23	    1200	     4.796
  60.580	        28	    1200	     5.292
  60.600	        36	    1200	     6.000
  60.620	        24	    1200	     4.899
  60.640	        24	    1200	     4.899
  60.660	        25	    1200	     5.000
  60.680	        25	    1200	     5.000
  60.700	        31	    1200	     5.568
  60.720	        16	    1200	     4.000
  60.740	        24	    1200	     4.899
  60.760	        22	    1200	     4.690
  60.780	        31	    1200	     5.568
  60.800	        17	    1200	     4.123
  60.820	        29	    1200	     5.385
  60.840	        17	    1200	     4.123
  60.860	        19	    1200	     4.359
  60.880	        23	    1200	     4.796
  60.900	        25	    1200	     5.000
  60.920	        17	    1200	     4.123
  60.940	        23	    1200	     4.796
  60.960	        23	    1200	     4.796
  60.980	        30	    1200	     5.477
  61.000	        21	    1200	     4.583
  61.020	        27	    1200	     5.196
  61.040	        20	    1200	     4.472
  61.060	        28	    1200	     5.292
  61.080	        25	    1200	     5.000
  61.100	        20	    1200	     4.472
  61.120	        17	    1200	     4.123
  61.140	        20	    1200	     4.472
  61.160	        22	    1200	     4.690
  61.180	        20	    1200	     4.472
  61.200	        19	    1200	     4.359
  61.220	        21	    1200	     4.583
  61.240	        26	    1200	     5.099
  61.260	        21	    1200	     4.583
  61.280	        21	    1200	     4.583
  61.300	        13	    1200	     3.606
  61.320	        13	    1200	     3.606
  61.340	        18	    1200	     4.243
  61.360	        16	    1200	     4.000
  61.380	        17	    1200	     4.123
  61.400	        17	    1200	     4.123
  61.420	        16	    1200	     4.000
  61.440	        23	    1200	     4.796
  61.460	        23	    1200	     4.796
  61.480	        19	    1200	     4.359
  61.500	        19	    1200	     4.359
  61.520	        13	    1200	     3.606
  61.540	        16	    1200	     4.000
  61.560	        25	    1200	     5.000
  61.580	        20	    1200	     4.472
  61.600	        19	    1200	     4.359
  61.620	        16	    1200	     4.000
  61.640	        23	    1200	     4.796
  61.660	        13	    1200	     3.606
  61.680	        15	    1200	     3.873
  61.700	        23	    1200	     4.796
  61.720	        20	    1200	     4.472
  61.740	        17	    1200	     4.123
  61.760	        17	    1200	     4.123
  61.780	        16	    1200	     4.000
  61.800	        14	    1200	     3.742
  61.820	        17	    1200	     4.123
  61.840	        22	    1200	     4.690
  61.860	        15	    1200	     3.873
  61.880	        21	    1200	     4.583
  61.900	        19	    1200	     4.359
  61.920	        15	    1200	     3.873
  61.940	        24	    1200	     4.899
  61.960	        17	    1200	     4.123
  61.980	        22	    1200	     4.690
  62.000	        18	    1200	     4.243
  62.020	        22	    1200	     4.690
  62.040	        13	    1200	     3.606
  62.060	        26	    1200	     5.099
  62.080	        18	    1200	     4.243
  62.100	        18	    1200	     4.243
  62.120	        18	    1200	     4.243
  62.140	        26	    1200	     5.099
  62.160	        16	    1200	     4.000
  62.180	        25	    1200	     5.000
  62.200	        21	    1200	     4.583
  62.220	        19	    1200	     4.359
  62.240	        24	    1200	     4.899
  62.260	        29	    1200	     5.385
  62.280	        20	    1200	     4.472
  62.300	        18	    1200	     4.243
  62.320	        17	    1200	     4.123
  62.340	        17	    1200	     4.123
  62.360	        19	    1200	     4.359
  62.380	        18	    1200	     4.243
  62.400	        17	    1200	     4.123
  62.420	        19	    1200	     4.359
  62.440	        17	    1200	     4.123
  62.460	        22	    1200	     4.690
  62.480	        18	    1200	     4.243
  62.500	        23	    1200	     4.796
  62.520	        21	    1200	     4.583
  62.540	        19	    1200	     4.359
  62.560	        27	    1200	     5.196
  62.580	        19	    1200	     4.359
  62.600	        16	    1200	     4.000
  62.620	        14	    1200	     3.742
  62.640	        18	    1200	     4.243
  62.660	        19	    1200	     4.359
  62.680	        20	    1200	     4.472
  62.700	        20	    1200	     4.472
  62.720	        11	    1200	     3.317
  62.740	        13	    1200	     3.606
  62.760	        14	    1200	     3.742
  62.780	        21	    1200	     4.583
  62.800	        25	    1200	     5.000
  62.820	        17	    1200	     4.123
  62.840	        16	    1200	     4.000
  62.860	        20	    1200	     4.472
  62.880	        13	    1200	     3.606
  62.900	        18	    1200	     4.243
  62.920	        17	    1200	     4.123
  62.940	        18	    1200	     4.243
  62.960	        13	    1200	     3.606
  62.980	        19	    1200	     4.359
  63.000	        19	    1200	     4.359
  63.020	        22	    1200	     4.690
  63.040	        26	    1200	     5.099
  63.060	        19	    1200	     4.359
  63.080	        20	    1200	     4.472
  63.100	        21	    1200	     4.583
  63.120	        22	    1200	     4.690
  63.140	        20	    1200	     4.472
  63.160	        24	    1200	     4.899
  63.180	        23	    1200	     4.796
  63.200	        19	    1200	     4.359
  63.220	        15	    1200	     3.873
  63.240	        13	    1200	     3.606
  63.260	        16	    1200	     4.000
  63.280	        22	    1200	     4.690
  63.300	        19	    1200	     4.359
  63.320	        20	    1200	     4.472
  63.340	        20	    1200	     4.472
  63.360	        13	    1200	     3.606
  63.380	        23	    1200	     4.796
  63.400	        23	    1200	     4.796
  63.420	        27	    1200	     5.196
  63.440	        23	    1200	     4.796
  63.460	        21	    1200	     4.583
  63.480	        23	    1200	     4.796
  63.500	        12	    1200	     3.464
  63.520	        26	    1200	     5.099
  63.540	        26	    1200	     5.099
  63.560	        25	    1200	     5.000
  63.580	        20	    1200	     4.472
  63.600	        16	    1200	     4.000
  63.620	        15	    1200	     3.873
  63.640	        29	    1200	     5.385
  63.660	        18	    1200	     4.243
  63.680	        24	    1200	     4.899
  63.700	        27	    1200	     5.196
  63.720	        19	    1200	     4.359
  63.740	        21	    1200	     4.583
  63.760	        22	    1200	     4.690
  63.780	        17	    1200	     4.123
  63.800	        30	    1200	     5.477
  63.820	        22	    1200	     4.690
  63.840	        30	    1200	     5.477
  63.860	        21	    1200	     4.583
  63.880	        26	    1200	     5.099
  63.900	        33	    1200	     5.745
  63.920	        25	    1200	     5.000
  63.940	        37	    1200	     6.083
  63.960	        21	    1200	     4.583
  63.980	        30	    1200	     5.477
  64.000	        35	    1200	     5.916
  64.020	        33	    1200	     5.745
  64.040	        39	    1200	     6.245
  64.060	        33	    1200	     5.745
  64.080	        29	    1200	     5.385
  64.100	        17	    1200	     4.123
  64.120	        27	    1200	     5.196
  64.140	        27	    1200	     5.196
  64.160	        28	    1200	     5.292
  64.180	        37	    1200	     6.083
  64.200	        33	    1200	     5.745
  64.220	        35	    1200	     5.916
  64.240	        32	    1200	     5.657
  64.260	        27	    1200	     5.196
  64.280	        35	    1200	     5.916
  64.300	        27	    1200	     5.196
  64.320	        32	    1200	     5.657
  64.340	        26	    1200	     5.099
  64.360	        29	    1200	     5.385
  64.380	        32	    1200	     5.657
  64.400	        26	    1200	     5.099
  64.420	        28	    1200	     5.292
  64.440	        31	    1200	     5.568
  64.460	        25	    1200	     5.000
  64.480	        24	    1200	     4.899
  64.500	        24	    1200	     4.899
  64.520	        24	    1200	     4.899
  64.540	        23	    1200	     4.796
  64.560	        27	    1200	     5.196
  64.580	        20	    1200	     4.472
  64.600	        32	    1200	     5.657
  64.620	        29	    1200	     5.385
  64.640	        25	    1200	     5.000
  64.660	        21	    1200	     4.583
  64.680	        27	    1200	     5.196
  64.700	        21	    1200	     4.583
  64.720	        26	    1200	     5.099
  64.740	        34	    1200	     5.831
  64.760	        37	    1200	     6.083
  64.780	        29	    1200	     5.385
  64.800	        36	    1200	     6.000
  64.820	        28	    1200	     5.292
  64.840	        38	    1200	     6.164
  64.860	        35	    1200	     5.916
  64.880	        40	    1200	     6.325
  64.900	        28	    1200	     5.292
  64.920	        43	    1200	     6.557
  64.940	        47	    1200	     6.856
  64.960	        33	    1200	     5.745
  64.980	        40	    1200	     6.325
  65.000	        37	    1200	     6.083
  65.020	        45	    1200	     6.708
  65.040	        34	    1200	     5.831
  65.060	        32	    1200	     5.657
  65.080	        46	    1200	     6.782
  65.100	        31	    1200	     5.568
  65.120	        45	    1200	     6.708
  65.140	        27	    1200	     5.196
  65.160	        29	    1200	     5.385
  65.180	        33	    1200	     5.745
  65.200	        40	    1200	     6.325
  65.220	        25	    1200	     5.000
  65.240	        43	    1200	     6.557
  65.260	        30	    1200	     5.477
  65.280	        29	    1200	     5.385
  65.300	        23	    1200	     4.796
  65.320	        25	    1200	     5.000
  65.340	        24	    1200	     4.899
  65.360	        23	    1200	     4.796
  65.380	        18	    1200	     4.243
  65.400	        23	    1200	     4.796
  65.420	        22	    1200	     4.690
  65.440	        27	    1200	     5.196
  65.460	        18	    1200	     4.243
  65.480	        20	    1200	     4.472
  65.500	        20	    1200	     4.472
  65.520	        23	    1200	     4.796
  65.540	        24	    1200	     4.899
  65.560	        25	    1200	     5.000
  65.580	        28	    1200	     5.292
  65.600	        23	    1200	     4.796
  65.620	        28	    1200	     5.292
  65.640	        28	    1200	     5.292
  65.660	        27	    1200	     5.196
  65.680	        23	    1200	     4.796
  65.700	        22	    1200	     4.690
  65.720	        21	    1200	     4.583
  65.740	        33	    1200	     5.745
  65.760	        28	    1200	     5.292
  65.780	        33	    1200	     5.745
  65.800	        22	    1200	     4.690
  65.820	        39	    1200	     6.245
  65.840	        38	    1200	     6.164
  65.860	        34	    1200	     5.831
  65.880	        38	    1200	     6.164
  65.900	        45	    1200	     6.708
  65.920	        36	    1200	     6.000
  65.940	        43	    1200	     6.557
  65.960	        36	    1200	     6.000
  65.980	        37	    1200	     6.083
  66.000	        33	    1200	     5.745
  66.020	        46	    1200	     6.782
  66.040	        40	    1200	     6.325
  66.060	        34	    1200	     5.831
  66.080	        32	    1200	     5.657
  66.100	        38	    1200	     6.164
  66.120	        43	    1200	     6.557
  66.140	        45	    1200	     6.708
  66.160	        34	    1200	     5.831
  66.180	        43	    1200	     6.557
  66.200	        51	    1200	     7.141
  66.220	        38	    1200	     6.164
  66.240	        38	    1200	     6.164
  66.260	        34	    1200	     5.831
  66.280	        37	    1200	     6.083
  66.300	        47	    1200	     6.856
  66.320	        42	    1200	     6.481
  66.340	        50	    1200	     7.071
  66.360	        41	    1200	     6.403
  66.380	        44	    1200	     6.633
  66.400	        47	    1200	     6.856
  66.420	        52	    1200	     7.211
  66.440	        55	    1200	     7.416
  66.460	        41	    1200	     6.403
  66.480	        49	    1200	     7.000
  66.500	        54	    1200	     7.348
  66.520	        49	    1200	     7.000
  66.540	        46	    1200	     6.782
  66.560	        38	    1200	     6.164
  66.580	        56	    1200	     7.483
  66.600	        40	    1200	     6.325
  66.620	        57	    1200	     7.550
  66.640	        31	    1200	     5.568
  66.660	        47	    1200	     6.856
  66.680	        45	    1200	     6.708
  66.700	        42	    1200	     6.481
  66.720	        40	    1200	     6.325
  66.740	        36	    1200	     6.000
  66.760	        59	    1200	     7.681
  66.780	        59	    1200	     7.681
  66.800	        49	    1200	     7.000
  66.820	        54	    1200	     7.348
  66.840	        45	    1200	     6.708
  66.860	        45	    1200	     6.708
  66.880	        46	    1200	     6.782
  66.900	        41	    1200	     6.403
  66.920	        45	    1200	     6.708
  66.940	        34	    1200	     5.831
  66.960	        62	    1200	     7.874
  66.980	        40	    1200	     6.325
  67.000	        48	    1200	     6.928
  67.020	        47	    1200	     6.856
  67.040	        33	    1200	     5.745
  67.060	        50	    1200	     7.071
  67.080	        40	    1200	     6.325
  67.100	        49	    1200	     7.000
  67.120	        49	    1200	     7.000
  67.140	        55	    1200	     7.416
  67.160	        53	    1200	     7.280
  67.180	        46	    1200	     6.782
  67.200	        54	    1200	     7.348
  67.220	        51	    1200	     7.141
  67.240	        53	    1200	     7.280
  67.260	        50	    1200	     7.071
  67.280	        55	    1200	     7.416
  67.300	        74	    1200	     8.602
  67.320	        67	    1200	     8.185
  67.340	        63	    1200	     7.937
  67.360	        63	    1200	     7.937
  67.380	        61	    1200	     7.810
  67.400	        65	    1200	     8.062
  67.420	        57	    1200	     7.550
  67.440	        67	    1200	     8.185
  67.460	        85	    1200	     9.220
  67.480	        72	    1200	     8.485
  67.500	        73	    1200	     8.544
  67.520	        91	    1200	     9.539
  67.540	        75	    1200	     8.660
  67.560	        86	    1200	     9.274
  67.580	        87	    1200	     9.327
  67.600	        82	    1200	     9.055
  67.620	        96	    1200	     9.798
  67.640	        88	    1200	     9.381
  67.660	        91	    1200	     9.539
  67.680	       101	    1200	    10.050
  67.700	        93	    1200	     9.644
  67.720	       114	    1200	    10.677
  67.740	       118	    1200	    10.863
  67.760	       103	    1200	    10.149
  67.780	       113	    1200	    10.630
  67.800	       132	    1200	    11.489
  67.820	       144	    1200	    12.000
  67.840	       104	    1200	    10.198
  67.860	       128	    1200	    11.314
  67.880	       116	    1200	    10.770
  67.900	       116	    1200	    10.770
  67.920	       110	    1200	    10.488
  67.940	       102	    1200	    10.100
  67.960	       111	    1200	    10.536
  67.980	       121	    1200	    11.000
  68.000	       123	    1200	    11.091
  68.020	       104	    1200	    10.198
  68.040	       106	    1200	    10.296
  68.060	       102	    1200	    10.100
  68.080	       114	    1200	    10.677
  68.100	       102	    1200	    10.100
  68.120	       110	    1200	    10.488
  68.140	        88	    1200	     9.381
  68.160	        94	    1200	     9.695
  68.180	       100	    1200	    10.000
  68.200	        86	    1200	     9.274
  68.220	        98	    1200	     9.899
  68.240	        79	    1200	     8.888
  68.260	        82	    1200	     9.055
  68.280	        66	    1200	     8.124
  68.300	        86	    1200	     9.274
  68.320	        65	    1200	     8.062
  68.340	        64	    1200	     8.000
  68.360	        57	    1200	     7.550
  68.380	        78	    1200	     8.832
  68.400	        62	    1200	     7.874
  68.420	        66	    1200	     8.124
  68.440	        62	    1200	     7.874
  68.460	        63	    1200	     7.937
  68.480	        60	    1200	     7.746
  68.500	        66	    1200	     8.124
  68.520	        53	    1200	     7.280
  68.540	        50	    1200	     7.071
  68.560	        51	    1200	     7.141
  68.580	        54	    1200	     7.348
  68.600	        54	    1200	     7.348
  68.620	        43	    1200	     6.557
  68.640	        35	    1200	     5.916
  68.660	        44	    1200	     6.633
  68.680	        39	    1200	     6.245
  68.700	        39	    1200	     6.245
  68.720	        41	    1200	     6.403
  68.740	        40	    1200	     6.325
  68.760	        37	    1200	     6.083
  68.780	        42	    1200	     6.481
  68.800	        46	    1200	     6.782
  68.820	        38	    1200	     6.164
  68.840	        44	    1200	     6.633
  68.860	        39	    1200	     6.245
  68.880	        43	    1200	     6.557
  68.900	        30	    1200	     5.477
  68.920	        32	    1200	     5.657
  68.940	        39	    1200	     6.245
  68.960	        28	    1200	     5.292
  68.980	        29	    1200	     5.385
  69.000	        41	    1200	     6.403
  69.020	        31	    1200	     5.568
  69.040	        28	    1200	     5.292
  69.060	        19	    1200	     4.359
  69.080	        33	    1200	     5.745
  69.100	        30	    1200	     5.477
  69.120	        13	    1200	     3.606
  69.140	        27	    1200	     5.196
  69.160	        21	    1200	     4.583
  69.180	        22	    1200	     4.690
  69.200	        31	    1200	     5.568
  69.220	        26	    1200	     5.099
  69.240	        22	    1200	     4.690
  69.260	        24	    1200	     4.899
  69.280	        23	    1200	     4.796
  69.300	        21	    1200	     4.583
  69.320	        19	    1200	     4.359
  69.340	        14	    1200	     3.742
  69.360	        18	    1200	     4.243
  69.380	        18	    1200	     4.243
  69.400	        22	    1200	     4.690
  69.420	        15	    1200	     3.873
  69.440	        24	    1200	     4.899
  69.460	        24	    1200	     4.899
  69.480	        24	    1200	     4.899
  69.500	        17	    1200	     4.123
  69.520	        29	    1200	     5.385
  69.540	        19	    1200	     4.359
  69.560	        22	    1200	     4.690
  69.580	        22	    1200	     4.690
  69.600	        26	    1200	     5.099
  69.620	        14	    1200	     3.742
  69.640	        17	    1200	     4.123
  69.660	        19	    1200	     4.359
  69.680	        14	    1200	     3.742
  69.700	        30	    1200	     5.477
  69.720	         9	    1200	     3.000
  69.740	        22	    1200	     4.690
  69.760	        22	    1200	     4.690
  69.780	        23	    1200	     4.796
  69.800	        18	    1200	     4.243
  69.820	        12	    1200	     3.464
  69.840	        21	    1200	     4.583
  69.860	        11	    1200	     3.317
  69.880	        13	    1200	     3.606
  69.900	        14	    1200	     3.742
  69.920	        21	    1200	     4.583
  69.940	        13	    1200	     3.606
  69.960	        14	    1200	     3.742
  69.980	        14	    1200	     3.742
  70.000	        19	    1200	     4.359
  70.020	        19	    1200	     4.359
  70.040	        14	    1200	     3.742
  70.060	        11	    1200	     3.317
  70.080	        22	    1200	     4.690
  70.100	        20	    1200	     4.472
  70.120	        12	    1200	     3.464
  70.140	        12	    1200	     3.464
  70.160	        11	    1200	     3.317
  70.180	        20	    1200	     4.472
  70.200	        10	    1200	     3.162
  70.220	        15	    1200	     3.873
  70.240	        13	    1200	     3.606
  70.260	        18	    1200	     4.243
  70.280	        13	    1200	     3.606
  70.300	        16	    1200	     4.000
  70.320	        20	    1200	     4.472
  70.340	        16	    1200	     4.000
  70.360	        15	    1200	     3.873
  70.380	        18	    1200	     4.243
  70.400	        16	    1200	     4.000
  70.420	         9	    1200	     3.000
  70.440	        17	    1200	     4.123
  70.460	        11	    1200	     3.317
  70.480	        15	    1200	     3.873
  70.500	        13	    1200	     3.606
  70.520	        16	    1200	     4.000
  70.540	        11	    1200	     3.317
  70.560	        23	    1200	     4.796
  70.580	        11	    1200	     3.317
  70.600	        17	    1200	     4.123
  70.620	        13	    1200	     3.606
  70.640	        17	    1200	     4.123
  70.660	        14	    1200	     3.742
  70.680	         9	    1200	     3.000
  70.700	        21	    1200	     4.583
  70.720	        19	    1200	     4.359
  70.740	        15	    1200	     3.873
  70.760	        23	    1200	     4.796
  70.780	        22	    1200	     4.690
  70.800	        17	    1200	     4.123
  70.820	        17	    1200	     4.123
  70.840	        20	    1200	     4.472
  70.860	        13	    1200	     3.606
  70.880	        14	    1200	     3.742
  70.900	        13	    1200	     3.606
  70.920	        14	    1200	     3.742
  70.940	        14	    1200	     3.742
  70.960	        11	    1200	     3.317
  70.980	        18	    1200	     4.243
  71.000	        16	    1200	     4.000
  71.020	        24	    1200	     4.899
  71.040	        15	    1200	     3.873
  71.060	        21	    1200	     4.583
  71.080	        19	    1200	     4.359
  71.100	        30	    1200	     5.477
  71.120	        11	    1200	     3.317
  71.140	        14	    1200	     3.742
  71.160	        17	    1200	     4.123
  71.180	        12	    1200	     3.464
  71.200	        28	    1200	     5.292
  71.220	        14	    1200	     3.742
  71.240	        25	    1200	     5.000
  71.260	        17	    1200	     4.123
  71.280	        16	    1200	     4.000
  71.300	        22	    1200	     4.690
  71.320	        18	    1200	     4.243
  71.340	        15	    1200	     3.873
  71.360	        17	    1200	     4.123
  71.380	        17	    1200	     4.123
  71.400	        24	    1200	     4.899
  71.420	        25	    1200	     5.000
  71.440	        16	    1200	     4.000
  71.460	        25	    1200	     5.000
  71.480	        17	    1200	     4.123
  71.500	        21	    1200	     4.583
  71.520	        15	    1200	     3.873
  71.540	        14	    1200	     3.742
  71.560	        15	    1200	     3.873
  71.580	        15	    1200	     3.873
  71.600	        16	    1200	     4.000
  71.620	        18	    1200	     4.243
  71.640	        21	    1200	     4.583
  71.660	        20	    1200	     4.472
  71.680	        18	    1200	     4.243
  71.700	        23	    1200	     4.796
  71.720	        18	    1200	     4.243
  71.740	        22	    1200	     4.690
  71.760	        18	    1200	     4.243
  71.780	        10	    1200	     3.162
  71.800	        11	    1200	     3.317
  71.820	        13	    1200	     3.606
  71.840	        20	    1200	     4.472
  71.860	        16	    1200	     4.000
  71.880	        13	    1200	     3.606
  71.900	        17	    1200	     4.123
  71.920	        13	    1200	     3.606
  71.940	        18	    1200	     4.243
  71.960	        27	    1200	     5.196
  71.980	        21	    1200	     4.583
  72.000	        17	    1200	     4.123
  72.020	        21	    1200	     4.583
  72.040	        20	    1200	     4.472
  72.060	        18	    1200	     4.243
  72.080	        19	    1200	     4.359
  72.100	        13	    1200	     3.606
  72.120	        15	    1200	     3.873
  72.140	        14	    1200	     3.742
  72.160	        15	    1200	     3.873
  72.180	        20	    1200	     4.472
  72.200	        22	    1200	     4.690
  72.220	        17	    1200	     4.123
  72.240	        16	    1200	     4.000
  72.260	        16	    1200	     4.000
  72.280	        17	    1200	     4.123
  72.300	        14	    1200	     3.742
  72.320	        14	    1200	     3.742
  72.340	        20	    1200	     4.472
  72.360	        19	    1200	     4.359
  72.380	        17	    1200	     4.123
  72.400	        21	    1200	     4.583
  72.420	        17	    1200	     4.123
  72.440	        29	    1200	     5.385
  72.460	        16	    1200	     4.000
  72.480	        16	    1200	     4.000
  72.500	        25	    1200	     5.000
  72.520	        16	    1200	     4.000
  72.540	        23	    1200	     4.796
  72.560	        26	    1200	     5.099
  72.580	        22	    1200	     4.690
  72.600	        18	    1200	     4.243
  72.620	        16	    1200	     4.000
  72.640	        19	    1200	     4.359
  72.660	        23	    1200	     4.796
  72.680	        22	    1200	     4.690
  72.700	        22	    1200	     4.690
  72.720	        12	    1200	     3.464
  72.740	        19	    1200	     4.359
  72.760	        26	    1200	     5.099
  72.780	        25	    1200	     5.000
  72.800	        17	    1200	     4.123
  72.820	        24	    1200	     4.899
  72.840	        18	    1200	     4.243
  72.860	        29	    1200	     5.385
  72.880	        24	    1200	     4.899
  72.900	        20	    1200	     4.472
  72.920	        17	    1200	     4.123
  72.940	        17	    1200	     4.123
  72.960	        24	    1200	     4.899
  72.980	        25	    1200	     5.000
  73.000	        15	    1200	     3.873
  73.020	        24	    1200	     4.899
  73.040	        22	    1200	     4.690
  73.060	        29	    1200	     5.385
  73.080	        26	    1200	     5.099
  73.100	        25	    1200	     5.000
  73.120	        15	    1200	     3.873
  73.140	        20	    1200	     4.472
  73.160	        18	    1200	     4.243
  73.180	        13	    1200	     3.606
  73.200	        26	    1200	     5.099
  73.220	        21	    1200	     4.583
  73.240	        20	    1200	     4.472
  73.260	        24	    1200	     4.899
  73.280	        20	    1200	     4.472
  73.300	        24	    1200	     4.899
  73.320	        30	    1200	     5.477
  73.340	        27	    1200	     5.196
  73.360	        21	    1200	     4.583
  73.380	        13	    1200	     3.606
  73.400	        26	    1200	     5.099
  73.420	        19	    1200	     4.359
  73.440	        20	    1200	     4.472
  73.460	        35	    1200	     5.916
  73.480	        28	    1200	     5.292
  73.500	        33	    1200	     5.745
  73.520	        27	    1200	     5.196
  73.540	        21	    1200	     4.583
  73.560	        26	    1200	     5.099
  73.580	        23	    1200	     4.796
  73.600	        29	    1200	     5.385
  73.620	        19	    1200	     4.359
  73.640	        20	    1200	     4.472
  73.660	        11	    1200	     3.317
  73.680	        22	    1200	     4.690
  73.700	        16	    1200	     4.000
  73.720	        15	    1200	     3.873
  73.740	        21	    1200	     4.583
  73.760	        22	    1200	     4.690
  73.780	        35	    1200	     5.916
  73.800	        24	    1200	     4.899
  73.820	        27	    1200	     5.196
  73.840	        15	    1200	     3.873
  73.860	        19	    1200	     4.359
  73.880	        24	    1200	     4.899
  73.900	        20	    1200	     4.472
  73.920	        26	    1200	     5.099
  73.940	        16	    1200	     4.000
  73.960	        18	    1200	     4.243
  73.980	        19	    1200	     4.359
  74.000	        18	    1200	     4.243
  74.020	        17	    1200	     4.123
  74.040	        27	    1200	     5.196
  74.060	        16	    1200	     4.000
  74.080	        19	    1200	     4.359
  74.100	        24	    1200	     4.899
  74.120	        23	    1200	     4.796
  74.140	        19	    1200	     4.359
  74.160	        28	    1200	     5.292
  74.180	        29	    1200	     5.385
  74.200	        34	    1200	     5.831
  74.220	        22	    1200	     4.690
  74.240	        24	    1200	     4.899
  74.260	        29	    1200	     5.385
  74.280	        27	    1200	     5.196
  74.300	        24	    1200	     4.899
  74.320	        21	    1200	     4.583
  74.340	        27	    1200	     5.196
  74.360	        23	    1200	     4.796
  74.380	        20	    1200	     4.472
  74.400	        25	    1200	     5.000
  74.420	        22	    1200	     4.690
  74.440	        21	    1200	     4.583
  74.460	        23	    1200	     4.796
  74.480	        22	    1200	     4.690
  74.500	        22	    1200	     4.690
  74.520	        30	    1200	     5.477
  74.540	        25	    1200	     5.000
  74.560	        27	    1200	     5.196
  74.580	        25	    1200	     5.000
  74.600	        15	    1200	     3.873
  74.620	        26	    1200	     5.099
  74.640	        27	    1200	     5.196
  74.660	        22	    1200	     4.690
  74.680	        26	    1200	     5.099
  74.700	        23	    1200	     4.796
  74.720	        29	    1200	     5.385
  74.740	        24	    1200	     4.899
  74.760	        22	    1200	     4.690
  74.780	        23	    1200	     4.796
  74.800	        19	    1200	     4.359
  74.820	        33	    1200	     5.745
  74.840	        16	    1200	     4.000
  74.860	        25	    1200	     5.000
  74.880	        35	    1200	     5.916
  74.900	        18	    1200	     4.243
  74.920	        23	    1200	     4.796
  74.940	        20	    1200	     4.472
  74.960	        19	    1200	     4.359
  74.980	        19	    1200	     4.359
  75.000	        29	    1200	     5.385
  75.020	        21	    1200	     4.583
  75.040	        14	    1200	     3.742
  75.060	        14	    1200	     3.742
  75.080	        22	    1200	     4.690
  75.100	        24	    1200	     4.899
  75.120	        23	    1200	     4.796
  75.140	        25	    1200	     5.000
  75.160	        32	    1200	     5.657
  75.180	        22	    1200	     4.690
  75.200	        24	    1200	     4.899
  75.220	        22	    1200	     4.690
  75.240	        24	    1200	     4.899
  75.260	        32	    1200	     5.657
  75.280	        23	    1200	     4.796
  75.300	        16	    1200	     4.000
  75.320	        20	    1200	     4.472
  75.340	        18	    1200	     4.243
  75.360	        22	    1200	     4.690
  75.380	        23	    1200	     4.796
  75.400	        13	    1200	     3.606
  75.420	        22	    1200	     4.690
  75.440	        31	    1200	     5.568
  75.460	        25	    1200	     5.000
  75.480	        24	    1200	     4.899
  75.500	        22	    1200	     4.690
  75.520	        24	    1200	     4.899
  75.540	        21	    1200	     4.583
  75.560	        32	    1200	     5.657
  75.580	        25	    1200	     5.000
  75.600	        20	    1200	     4.472
  75.620	        23	    1200	     4.796
  75.640	        21	    1200	     4.583
  75.660	        21	    1200	     4.583
  75.680	        24	    1200	     4.899
  75.700	        24	    1200	     4.899
  75.720	        21	    1200	     4.583
  75.740	        27	    1200	     5.196
  75.760	        28	    1200	     5.292
  75.780	        18	    1200	     4.243
  75.800	        22	    1200	     4.690
  75.820	        24	    1200	     4.899
  75.840	        21	    1200	     4.583
  75.860	        24	    1200	     4.899
  75.880	        26	    1200	     5.099
  75.900	        26	    1200	     5.099
  75.920	        25	    1200	     5.000
  75.940	        31	    1200	     5.568
  75.960	        27	    1200	     5.196
  75.980	        16	    1200	     4.000
  76.000	        27	    1200	     5.196
  76.020	        31	    1200	     5.568
  76.040	        26	    1200	     5.099
  76.060	        18	    1200	     4.243
  76.080	        30	    1200	     5.477
  76.100	        26	    1200	     5.099
  76.120	        25	    1200	     5.000
  76.140	        25	    1200	     5.000
  76.160	        34	    1200	     5.831
  76.180	        29	    1200	     5.385
  76.200	        36	    1200	     6.000
  76.220	        36	    1200	     6.000
  76.240	        34	    1200	     5.831
  76.260	        25	    1200	     5.000
  76.280	        24	    1200	     4.899
  76.300	        31	    1200	     5.568
  76.320	        28	    1200	     5.292
  76.340	        38	    1200	     6.164
  76.360	        34	    1200	     5.831
  76.380	        39	    1200	     6.245
  76.400	        36	    1200	     6.000
  76.420	        40	    1200	     6.325
  76.440	        34	    1200	     5.831
  76.460	        32	    1200	     5.657
  76.480	        30	    1200	     5.477
  76.500	        23	    1200	     4.796
  76.520	        28	    1200	     5.292
  76.540	        38	    1200	     6.164
  76.560	        59	    1200	     7.681
  76.580	        40	    1200	     6.325
  76.600	        41	    1200	     6.403
  76.620	        37	    1200	     6.083
  76.640	        48	    1200	     6.928
  76.660	        52	    1200	     7.211
  76.680	        33	    1200	     5.745
  76.700	        45	    1200	     6.708
  76.720	        46	    1200	     6.782
  76.740	        53	    1200	     7.280
  76.760	        59	    1200	     7.681
  76.780	        45	    1200	     6.708
  76.800	        59	    1200	     7.681
  76.820	        74	    1200	     8.602
  76.840	        62	    1200	     7.874
  76.860	        84	    1200	     9.165
  76.880	        73	    1200	     8.544
  76.900	        83	    1200	     9.110
  76.920	        61	    1200	     7.810
  76.940	        83	    1200	     9.110
  76.960	        82	    1200	     9.055
  76.980	        69	    1200	     8.307
  77.000	        66	    1200	     8.124
  77.020	        86	    1200	     9.274
  77.040	        68	    1200	     8.246
  77.060	        91	    1200	     9.539
  77.080	        80	    1200	     8.944
  77.100	        89	    1200	     9.434
  77.120	       102	    1200	    10.100
  77.140	        80	    1200	     8.944
  77.160	        77	    1200	     8.775
  77.180	        87	    1200	     9.327
  77.200	       103	    1200	    10.149
  77.220	       117	    1200	    10.817
  77.240	        99	    1200	     9.950
  77.260	        91	    1200	     9.539
  77.280	        99	    1200	     9.950
  77.300	        93	    1200	     9.644
  77.320	        86	    1200	     9.274
  77.340	        97	    1200	     9.849
  77.360	        92	    1200	     9.592
  77.380	        86	    1200	     9.274
  77.400	        94	    1200	     9.695
  77.420	        93	    1200	     9.644
  77.440	        82	    1200	     9.055
  77.460	        73	    1200	     8.544
  77.480	        80	    1200	     8.944
  77.500	        70	    1200	     8.367
  77.520	        81	    1200	     9.000
  77.540	        78	    1200	     8.832
  77.560	        83	    1200	     9.110
  77.580	        71	    1200	     8.426
  77.600	        69	    1200	     8.307
  77.620	        70	    1200	     8.367
  77.640	        61	    1200	     7.810
  77.660	        64	    1200	     8.000
  77.680	        64	    1200	     8.000
  77.700	        64	    1200	     8.000
  77.720	        87	    1200	     9.327
  77.740	        79	    1200	     8.888
  77.760	        71	    1200	     8.426
  77.780	        71	    1200	     8.426
  77.800	        65	    1200	     8.062
  77.820	        66	    1200	     8.124
  77.840	        58	    1200	     7.616
  77.860	        68	    1200	     8.246
  77.880	        48	    1200	     6.928
  77.900	        66	    1200	     8.124
  77.920	        54	    1200	     7.348
  77.940	        59	    1200	     7.681
  77.960	        44	    1200	     6.633
  77.980	        47	    1200	     6.856
  78.000	        50	    1200	     7.071
  78.020	        46	    1200	     6.782
  78.040	        54	    1200	     7.348
  78.060	        54	    1200	     7.348
  78.080	        40	    1200	     6.325
  78.100	        54	    1200	     7.348
  78.120	        47	    1200	     6.856
  78.140	        44	    1200	     6.633
  78.160	        32	    1200	     5.657
  78.180	        36	    1200	     6.000
  78.200	        43	    1200	     6.557
  78.220	        43	    1200	     6.557
  78.240	        38	    1200	     6.164
  78.260	        35	    1200	     5.916
  78.280	        38	    1200	     6.164
  78.300	        38	    1200	     6.164
  78.320	        35	    1200	     5.916
  78.340	        35	    1200	     5.916
  78.360	        35	    1200	     5.916
  78.380	        33	    1200	     5.745
  78.400	        37	    1200	     6.083
  78.420	        30	    1200	     5.477
  78.440	        35	    1200	     5.916
  78.460	        32	    1200	     5.657
  78.480	        24	    1200	     4.899
  78.500	        38	    1200	     6.164
  78.520	        33	    1200	     5.745
  78.540	        38	    1200	     6.164
  78.560	        40	    1200	     6.325
  78.580	        31	    1200	     5.568
  78.600	        30	    1200	     5.477
  78.620	        23	    1200	     4.796
  78.640	        29	    1200	     5.385
  78.660	        33	    1200	     5.745
  78.680	        39	    1200	     6.245
  78.700	        26	    1200	     5.099
  78.720	        23	    1200	     4.796
  78.740	        33	    1200	     5.745
  78.760	        24	    1200	     4.899
  78.780	        43	    1200	     6.557
  78.800	        26	    1200	     5.099
  78.820	        17	    1200	     4.123
  78.840	        39	    1200	     6.245
  78.860	        33	    1200	     5.745
  78.880	        24	    1200	     4.899
  78.900	        23	    1200	     4.796
  78.920	        30	    1200	     5.477
  78.940	        18	    1200	     4.243
  78.960	        34	    1200	     5.831
  78.980	        21	    1200	     4.583
  79.000	        25	    1200	     5.000
  79.020	        24	    1200	     4.899
  79.040	        17	    1200	     4.123
  79.060	        19	    1200	     4.359
  79.080	        21	    1200	     4.583
  79.100	        20	    1200	     4.472
  79.120	        22	    1200	     4.690
  79.140	        27	    1200	     5.196
  79.160	        26	    1200	     5.099
  79.180	        26	    1200	     5.099
  79.200	        26	    1200	     5.099
  79.220	        27	    1200	     5.196
  79.240	        21	    1200	     4.583
  79.260	        26	    1200	     5.099
  79.280	        25	    1200	     5.000
  79.300	        20	    1200	     4.472
  79.320	        18	    1200	     4.243
  79.340	        25	    1200	     5.000
  79.360	        21	    1200	     4.583
  79.380	        17	    1200	     4.123
  79.400	        13	    1200	     3.606
  79.420	        23	    1200	     4.796
  79.440	        21	    1200	     4.583
  79.460	        24	    1200	     4.899
  79.480	        19	    1200	     4.359
  79.500	        24	    1200	     4.899
  79.520	        15	    1200	     3.873
  79.540	        28	    1200	     5.292
  79.560	        23	    1200	     4.796
  79.580	        24	    1200	     4.899
  79.600	        25	    1200	     5.000
  79.620	        16	    1200	     4.000
  79.640	        23	    1200	     4.796
  79.660	        19	    1200	     4.359
  79.680	        17	    1200	     4.123
  79.700	        16	    1200	     4.000
  79.720	        21	    1200	     4.583
  79.740	        22	    1200	     4.690
  79.760	        16	    1200	     4.000
  79.780	        22	    1200	     4.690
  79.800	        30	    1200	     5.477
  79.820	        15	    1200	     3.873
  79.840	        27	    1200	     5.196
  79.860	        13	    1200	     3.606
  79.880	        16	    1200	     4.000
  79.900	        25	    1200	     5.000
  79.920	        17	    1200	     4.123
  79.940	        27	    1200	     5.196
  79.960	        21	    1200	     4.583
  79.980	        14	    1200	     3.742
  80.000	        25	    1200	     5.000
  80.020	        28	    1200	     5.292
  80.040	        23	    1200	     4.796
  80.060	        14	    1200	     3.742
  80.080	        24	    1200	     4.899
  80.100	        25	    1200	     5.000
  80.120	        21	    1200	     4.583
  80.140	        28	    1200	     5.292
  80.160	        19	    1200	     4.359
  80.180	        23	    1200	     4.796
  80.200	        21	    1200	     4.583
  80.220	        19	    1200	     4.359
  80.240	        14	    1200	     3.742
  80.260	        26	    1200	     5.099
  80.280	        21	    1200	     4.583
  80.300	        25	    1200	     5.000
  80.320	        15	    1200	     3.873
  80.340	        23	    1200	     4.796
  80.360	        14	    1200	     3.742
  80.380	        24	    1200	     4.899
  80.400	        15	    1200	     3.873
  80.420	        11	    1200	     3.317
  80.440	        20	    1200	     4.472
  80.460	        21	    1200	     4.583
  80.480	        25	    1200	     5.000
  80.500	        24	    1200	     4.899
  80.520	        20	    1200	     4.472
  80.540	        17	    1200	     4.123
  80.560	        15	    1200	     3.873
  80.580	        23	    1200	     4.796
  80.600	        13	    1200	     3.606
  80.620	        21	    1200	     4.583
  80.640	        24	    1200	     4.899
  80.660	        29	    1200	     5.385
  80.680	        26	    1200	     5.099
  80.700	        19	    1200	     4.359
  80.720	        17	    1200	     4.123
  80.740	        20	    1200	     4.472
  80.760	        24	    1200	     4.899
  80.780	        25	    1200	     5.000
  80.800	        20	    1200	     4.472
  80.820	        16	    1200	     4.000
  80.840	        20	    1200	     4.472
  80.860	        16	    1200	     4.000
  80.880	        18	    1200	     4.243
  80.900	        31	    1200	     5.568
  80.920	        17	    1200	     4.123
  80.940	        14	    1200	     3.742
  80.960	        26	    1200	     5.099
  80.980	        31	    1200	     5.568
  81.000	        22	    1200	     4.690
  81.020	        30	    1200	     5.477
  81.040	        23	    1200	     4.796
  81.060	        31	    1200	     5.568
  81.080	        19	    1200	     4.359
  81.100	        30	    1200	     5.477
  81.120	        28	    1200	     5.292
  81.140	        29	    1200	     5.385
  81.160	        18	    1200	     4.243
  81.180	        14	    1200	     3.742
  81.200	        15	    1200	     3.873
  81.220	        22	    1200	     4.690
  81.240	        20	    1200	     4.472
  81.260	        34	    1200	     5.831
  81.280	        28	    1200	     5.292
  81.300	        23	    1200	     4.796
  81.320	        26	    1200	     5.099
  81.340	        17	    1200	     4.123
  81.360	        22	    1200	     4.690
  81.380	        21	    1200	     4.583
  81.400	        22	    1200	     4.690
  81.420	        24	    1200	     4.899
  81.440	        25	    1200	     5.000
  81.460	        32	    1200	     5.657
  81.480	        22	    1200	     4.690
  81.500	        21	    1200	     4.583
  81.520	        37	    1200	     6.083
  81.540	        25	    1200	     5.000
  81.560	        28	    1200	     5.292
  81.580	        32	    1200	     5.657
  81.600	        37	    1200	     6.083
  81.620	        30	    1200	     5.477
  81.640	        22	    1200	     4.690
  81.660	        37	    1200	     6.083
  81.680	        24	    1200	     4.899
  81.700	        34	    1200	     5.831
  81.720	        29	    1200	     5.385
  81.740	        37	    1200	     6.083
  81.760	        19	    1200	     4.359
  81.780	        36	    1200	     6.000
  81.800	        32	    1200	     5.657
  81.820	        36	    1200	     6.000
  81.840	        26	    1200	     5.099
  81.860	        30	    1200	     5.477
  81.880	        32	    1200	     5.657
  81.900	        34	    1200	     5.831
  81.920	        30	    1200	     5.477
  81.940	        35	    1200	     5.916
  81.960	        40	    1200	     6.325
  81.980	        39	    1200	     6.245
  82.000	        36	    1200	     6.000
  82.020	        39	    1200	     6.245
  82.040	        36	    1200	     6.000
  82.060	        48	    1200	     6.928
  82.080	        38	    1200	     6.164
  82.100	        36	    1200	     6.000
  82.120	        43	    1200	     6.557
  82.140	        48	    1200	     6.928
  82.160	        45	    1200	     6.708
  82.180	        47	    1200	     6.856
  82.200	        52	    1200	     7.211
  82.220	        64	    1200	     8.000
  82.240	        62	    1200	     7.874
  82.260	        63	    1200	     7.937
  82.280	        47	    1200	     6.856
  82.300	        56	    1200	     7.483
  82.320	        72	    1200	     8.485
  82.340	        60	    1200	     7.746
  82.360	        63	    1200	     7.937
  82.380	        72	    1200	     8.485
  82.400	        58	    1200	     7.616
  82.420	        70	    1200	     8.367
  82.440	        62	    1200	     7.874
  82.460	        68	    1200	     8.246
  82.480	        80	    1200	     8.944
  82.500	        60	    1200	     7.746
  82.520	        44	    1200	     6.633
  82.540	        49	    1200	     7.000
  82.560	        62	    1200	     7.874
  82.580	        82	    1200	     9.055
  82.600	        71	    1200	     8.426
  82.620	        53	    1200	     7.280
  82.640	        62	    1200	     7.874
  82.660	        47	    1200	     6.856
  82.680	        50	    1200	     7.071
  82.700	        45	    1200	     6.708
  82.720	        57	    1200	     7.550
  82.740	        37	    1200	     6.083
  82.760	        38	    1200	     6.164
  82.780	        43	    1200	     6.557
  82.800	        41	    1200	     6.403
  82.820	        40	    1200	     6.325
  82.840	        43	    1200	     6.557
  82.860	        54	    1200	     7.348
  82.880	        48	    1200	     6.928
  82.900	        34	    1200	     5.831
  82.920	        50	    1200	     7.071
  82.940	        31	    1200	     5.568
  82.960	        35	    1200	     5.916
  82.980	        43	    1200	     6.557
  83.000	        31	    1200	     5.568
  83.020	        45	    1200	     6.708
  83.040	        42	    1200	     6.481
  83.060	        43	    1200	     6.557
  83.080	        34	    1200	     5.831
  83.100	        31	    1200	     5.568
  83.120	        28	    1200	     5.292
  83.140	        36	    1200	     6.000
  83.160	        28	    1200	     5.292
  83.180	        33	    1200	     5.745
  83.200	        33	    1200	     5.745
  83.220	        29	    1200	     5.385
  83.240	        31	    1200	     5.568
  83.260	        26	    1200	     5.099
  83.280	        34	    1200	     5.831
  83.300	        30	    1200	     5.477
  83.320	        29	    1200	     5.385
  83.340	        27	    1200	     5.196
  83.360	        33	    1200	     5.745
  83.380	        31	    1200	     5.568
  83.400	        38	    1200	     6.164
  83.420	        26	    1200	     5.099
  83.440	        25	    1200	     5.000
  83.460	        20	    1200	     4.472
  83.480	        19	    1200	     4.359
  83.500	        25	    1200	     5.000
  83.520	        29	    1200	     5.385
  83.540	        25	    1200	     5.000
  83.560	        33	    1200	     5.745
  83.580	        27	    1200	     5.196
  83.600	        33	    1200	     5.745
  83.620	        30	    1200	     5.477
  83.640	        30	    1200	     5.477
  83.660	        23	    1200	     4.796
  83.680	        26	    1200	     5.099
  83.700	        17	    1200	     4.123
  83.720	        32	    1200	     5.657
  83.740	        32	    1200	     5.657
  83.760	        23	    1200	     4.796
  83.780	        21	    1200	     4.583
  83.800	        12	    1200	     3.464
  83.820	        19	    1200	     4.359
  83.840	        18	    1200	     4.243
  83.860	        29	    1200	     5.385
  83.880	        27	    1200	     5.196
  83.900	        23	    1200	     4.796
  83.920	        20	    1200	     4.472
  83.940	        31	    1200	     5.568
  83.960	        24	    1200	     4.899
  83.980	        28	    1200	     5.292
  84.000	        25	    1200	     5.000
  84.020	        20	    1200	     4.472
  84.040	        27	    1200	     5.196
  84.060	        24	    1200	     4.899
  84.080	        14	    1200	     3.742
  84.100	        22	    1200	     4.690
  84.120	        23	    1200	     4.796
  84.140	        19	    1200	     4.359
  84.160	        29	    1200	     5.385
  84.180	        26	    1200	     5.099
  84.200	        27	    1200	     5.196
  84.220	        27	    1200	     5.196
  84.240	        23	    1200	     4.796
  84.260	        18	    1200	     4.243
  84.280	        15	    1200	     3.873
  84.300	        26	    1200	     5.099
  84.320	        26	    1200	     5.099
  84.340	        18	    1200	     4.243
  84.360	        22	    1200	     4.690
  84.380	        24	    1200	     4.899
  84.400	        24	    1200	     4.899
  84.420	        26	    1200	     5.099
  84.440	        33	    1200	     5.745
  84.460	        24	    1200	     4.899
  84.480	        22	    1200	     4.690
  84.500	        33	    1200	     5.745
  84.520	        21	    1200	     4.583
  84.540	        13	    1200	     3.606
  84.560	        26	    1200	     5.099
  84.580	        34	    1200	     5.831
  84.600	        26	    1200	     5.099
  84.620	        24	    1200	     4.899
  84.640	        24	    1200	     4.899
  84.660	        27	    1200	     5.196
  84.680	        34	    1200	     5.831
  84.700	        32	    1200	     5.657
  84.720	        39	    1200	     6.245
  84.740	        35	    1200	     5.916
  84.760	        33	    1200	     5.745
  84.780	        35	    1200	     5.916
  84.800	        28	    1200	     5.292
  84.820	        32	    1200	     5.657
  84.840	        40	    1200	     6.325
  84.860	        31	    1200	     5.568
  84.880	        33	    1200	     5.745
  84.900	        28	    1200	     5.292
  84.920	        26	    1200	     5.099
  84.940	        34	    1200	     5.831
  84.960	        35	    1200	     5.916
  84.980	        34	    1200	     5.831
  85.000	        18	    1200	     4.243
  85.020	        40	    1200	     6.325
  85.040	        30	    1200	     5.477
  85.060	        29	    1200	     5.385
  85.080	        37	    1200	     6.083
  85.100	        29	    1200	     5.385
  85.120	        37	    1200	     6.083
  85.140	        29	    1200	     5.385
  85.160	        32	    1200	     5.657
  85.180	        38	    1200	     6.164
  85.200	        31	    1200	     5.568
  85.220	        25	    1200	     5.000
  85.240	        30	    1200	     5.477
  85.260	        34	    1200	     5.831
  85.280	        19	    1200	     4.359
  85.300	        35	    1200	     5.916
  85.320	        27	    1200	     5.196
  85.340	        30	    1200	     5.477
  85.360	        27	    1200	     5.196
  85.380	        29	    1200	     5.385
  85.400	        28	    1200	     5.292
  85.420	        31	    1200	     5.568
  85.440	        19	    1200	     4.359
  85.460	        37	    1200	     6.083
  85.480	        23	    1200	     4.796
  85.500	        28	    1200	     5.292
  85.520	        23	    1200	     4.796
  85.540	        34	    1200	     5.831
  85.560	        34	    1200	     5.831
  85.580	        24	    1200	     4.899
  85.600	        27	    1200	     5.196
  85.620	        40	    1200	     6.325
  85.640	        40	    1200	     6.325
  85.660	        35	    1200	     5.916
  85.680	        31	    1200	     5.568
  85.700	        27	    1200	     5.196
  85.720	        35	    1200	     5.916
  85.740	        26	    1200	     5.099
  85.760	        33	    1200	     5.745
  85.780	        36	    1200	     6.000
  85.800	        35	    1200	     5.916
  85.820	        20	    1200	     4.472
  85.840	        22	    1200	     4.690
  85.860	        27	    1200	     5.196
  85.880	        27	    1200	     5.196
  85.900	        28	    1200	     5.292
  85.920	        34	    1200	     5.831
  85.940	        34	    1200	     5.831
  85.960	        33	    1200	     5.745
  85.980	        33	    1200	     5.745
  86.000	        33	    1200	     5.745
  86.020	        47	    1200	     6.856
  86.040	        29	    1200	     5.385
  86.060	        35	    1200	     5.916
  86.080	        28	    1200	     5.292
  86.100	        36	    1200	     6.000
  86.120	        37	    1200	     6.083
  86.140	        36	    1200	     6.000
  86.160	        21	    1200	     4.583
  86.180	        29	    1200	     5.385
  86.200	        36	    1200	     6.000
  86.220	        31	    1200	     5.568
  86.240	        27	    1200	     5.196
  86.260	        42	    1200	     6.481
  86.280	        32	    1200	     5.657
  86.300	        34	    1200	     5.831
  86.320	        39	    1200	     6.245
  86.340	        34	    1200	     5.831
  86.360	        29	    1200	     5.385
  86.380	        26	    1200	     5.099
  86.400	        37	    1200	     6.083
  86.420	        23	    1200	     4.796
  86.440	        26	    1200	     5.099
  86.460	        36	    1200	     6.000
  86.480	        41	    1200	     6.403
  86.500	        27	    1200	     5.196
  86.520	        26	    1200	     5.099
  86.540	        32	    1200	     5.657
  86.560	        36	    1200	     6.000
  86.580	        27	    1200	     5.196
  86.600	        25	    1200	     5.000
  86.620	        32	    1200	     5.657
  86.640	        32	    1200	     5.657
  86.660	        31	    1200	     5.568
  86.680	        23	    1200	     4.796
  86.700	        26	    1200	     5.099
  86.720	        32	    1200	     5.657
  86.740	        30	    1200	     5.477
  86.760	        27	    1200	     5.196
  86.780	        27	    1200	     5.196
  86.800	        25	    1200	     5.000
  86.820	        25	    1200	     5.000
  86.840	        27	    1200	     5.196
  86.860	        32	    1200	     5.657
  86.880	        25	    1200	     5.000
  86.900	        25	    1200	     5.000
  86.920	        22	    1200	     4.690
  86.940	        24	    1200	     4.899
  86.960	        29	    1200	     5.385
  86.980	        13	    1200	     3.606
  87.000	        26	    1200	     5.099
  87.020	        30	    1200	     5.477
  87.040	        21	    1200	     4.583
  87.060	        16	    1200	     4.000
  87.080	        32	    1200	     5.657
  87.100	        23	    1200	     4.796
  87.120	        17	    1200	     4.123
  87.140	        22	    1200	     4.690
  87.160	        18	    1200	     4.243
  87.180	        18	    1200	     4.243
  87.200	        12	    1200	     3.464
  87.220	        20	    1200	     4.472
  87.240	        14	    1200	     3.742
  87.260	        25	    1200	     5.000
  87.280	        17	    1200	     4.123
  87.300	        16	    1200	     4.000
  87.320	        22	    1200	     4.690
  87.340	        22	    1200	     4.690
  87.360	        27	    1200	     5.196
  87.380	        13	    1200	     3.606
  87.400	        21	    1200	     4.583
  87.420	        17	    1200	     4.123
  87.440	        19	    1200	     4.359
  87.460	        19	    1200	     4.359
  87.480	        18	    1200	     4.243
  87.500	        17	    1200	     4.123
  87.520	        21	    1200	     4.583
  87.540	        23	    1200	     4.796
  87.560	        16	    1200	     4.000
  87.580	        23	    1200	     4.796
  87.600	        16	    1200	     4.000
  87.620	        17	    1200	     4.123
  87.640	        18	    1200	     4.243
  87.660	        18	    1200	     4.243
  87.680	        17	    1200	     4.123
  87.700	        25	    1200	     5.000
  87.720	        29	    1200	     5.385
  87.740	        11	    1200	     3.317
  87.760	        13	    1200	     3.606
  87.780	        20	    1200	     4.472
  87.800	        20	    1200	     4.472
  87.820	        21	    1200	     4.583
  87.840	        25	    1200	     5.000
  87.860	        25	    1200	     5.000
  87.880	        15	    1200	     3.873
  87.900	        16	    1200	     4.000
  87.920	        19	    1200	     4.359
  87.940	        17	    1200	     4.123
  87.960	        20	    1200	     4.472
  87.980	        31	    1200	     5.568
  88.000	        28	    1200	     5.292
  88.020	        14	    1200	     3.742
  88.040	        17	    1200	     4.123
  88.060	        23	    1200	     4.796
  88.080	        22	    1200	     4.690
  88.100	        11	    1200	     3.317
  88.120	        14	    1200	     3.742
  88.140	        26	    1200	     5.099
  88.160	        16	    1200	     4.000
  88.180	        15	    1200	     3.873
  88.200	        18	    1200	     4.243
  88.220	        14	    1200	     3.742
  88.240	        19	    1200	     4.359
  88.260	        24	    1200	     4.899
  88.280	        26	    1200	     5.099
  88.300	        21	    1200	     4.583
  88.320	        19	    1200	     4.359
  88.340	        18	    1200	     4.243
  88.360	        19	    1200	     4.359
  88.380	        17	    1200	     4.123
  88.400	        16	    1200	     4.000
  88.420	        17	    1200	     4.123
  88.440	        20	    1200	     4.472
  88.460	        18	    1200	     4.243
  88.480	        25	    1200	     5.000
  88.500	        18	    1200	     4.243
  88.520	        22	    1200	     4.690
  88.540	        23	    1200	     4.796
  88.560	        21	    1200	     4.583
  88.580	        18	    1200	     4.243
  88.600	        21	    1200	     4.583
  88.620	        14	    1200	     3.742
  88.640	        26	    1200	     5.099
  88.660	        20	    1200	     4.472
  88.680	        22	    1200	     4.690
  88.700	        16	    1200	     4.000
  88.720	        12	    1200	     3.464
  88.740	        21	    1200	     4.583
  88.760	        15	    1200	     3.873
  88.780	        18	    1200	     4.243
  88.800	        29	    1200	     5.385
  88.820	        11	    1200	     3.317
  88.840	        22	    1200	     4.690
  88.860	        15	    1200	     3.873
  88.880	        18	    1200	     4.243
  88.900	        21	    1200	     4.583
  88.920	        17	    1200	     4.123
  88.940	        26	    1200	     5.099
  88.960	        18	    1200	     4.243
  88.980	        15	    1200	     3.873
  89.000	        24	    1200	     4.899
  89.020	        19	    1200	     4.359
  89.040	        15	    1200	     3.873
  89.060	        22	    1200	     4.690
  89.080	        16	    1200	     4.000
  89.100	        19	    1200	     4.359
  89.120	        16	    1200	     4.000
  89.140	        15	    1200	     3.873
  89.160	        23	    1200	     4.796
  89.180	        19	    1200	     4.359
  89.200	        23	    1200	     4.796
  89.220	        20	    1200	     4.472
  89.240	        25	    1200	     5.000
  89.260	        16	    1200	     4.000
  89.280	        17	    1200	     4.123
  89.300	        23	    1200	     4.796
  89.320	        14	    1200	     3.742
  89.340	        22	    1200	     4.690
  89.360	        18	    1200	     4.243
  89.380	        12	    1200	     3.464
  89.400	        19	    1200	     4.359
  89.420	        24	    1200	     4.899
  89.440	        14	    1200	     3.742
  89.460	        19	    1200	     4.359
  89.480	        21	    1200	     4.583
  89.500	        23	    1200	     4.796
  89.520	        11	    1200	     3.317
  89.540	        11	    1200	     3.317
  89.560	        22	    1200	     4.690
  89.580	        22	    1200	     4.690
  89.600	        16	    1200	     4.000
  89.620	        19	    1200	     4.359
  89.640	        12	    1200	     3.464
  89.660	        18	    1200	     4.243
  89.680	        23	    1200	     4.796
  89.700	        20	    1200	     4.472
  89.720	        11	    1200	     3.317
  89.740	        14	    1200	     3.742
  89.760	        24	    1200	     4.899
  89.780	        17	    1200	     4.123
  89.800	        10	    1200	     3.162
  89.820	        25	    1200	     5.000
  89.840	        20	    1200	     4.472
  89.860	        15	    1200	     3.873
  89.880	        25	    1200	     5.000
  89.900	        15	    1200	     3.873
  89.920	        26	    1200	     5.099
  89.940	        20	    1200	     4.472
  89.960	        21	    1200	     4.583
  89.980	        10	    1200	     3.162
  90.000	        18	    1200	     4.243
