         ID: 

    Comment: 

Scan Type: Normal
Start Angle: 15 deg.
Stop Angle: 90 deg.
Num Points: 3751
Step Size: 0.02 deg.
Datafile Res: 1600 
Scan Rate: 1.000000
Scan Mode: Continuous
Wavelength: 1.540562

Diffractometer Optics:
		Detector:
			 Type: Fixed Slits
			 X2 Configuration: No
		Tube: 
			 Type: Fixed Slits
			 X2 Configuration: No


Axis[0]
	 Selected   : no 
	 Iterative  : no 
	 Start Angle: 0.000000 
	 Stop Angle : 0.000000 
	 Step Size  : 0.000000 
	 Oscillating: no 

Axis[1]
	 Selected   : no 
	 Iterative  : no 
	 Start Angle: 0.000000 
	 Stop Angle : 0.000000 
	 Step Size  : 0.000000 
	 Oscillating: no 

Axis[2]
	 Selected   : no 
	 Iterative  : no 
	 Start Angle: 0.000000 
	 Stop Angle : 0.000000 
	 Step Size  : 0.000000 
	 Oscillating: no 

Axis[3]
	 Selected   : no 
	 Iterative  : no 
	 Start Angle: 0.000000 
	 Stop Angle : 0.000000 
	 Step Size  : 0.000000 
	 Oscillating: no 

Axis[4]
	 Selected   : no 
	 Iterative  : no 
	 Start Angle: 0.000000 
	 Stop Angle : 0.000000 
	 Step Size  : 0.000000 
	 Oscillating: no 

Axis[5]
	 Selected   : no 
	 Iterative  : no 
	 Start Angle: 0.000000 
	 Stop Angle : 0.000000 
	 Step Size  : 0.000000 
	 Oscillating: no 

Axis[6]
	 Selected   : no 
	 Iterative  : no 
	 Start Angle: 0.000000 
	 Stop Angle : 0.000000 
	 Step Size  : 0.000000 
	 Oscillating: no 

Axis[7]
	 Selected   : no 
	 Iterative  : no 
	 Start Angle: 0.000000 
	 Stop Angle : 0.000000 
	 Step Size  : 0.000000 
	 Oscillating: no 

Axis[8]
	 Selected   : no 
	 Iterative  : no 
	 Start Angle: 0.000000 
	 Stop Angle : 0.000000 
	 Step Size  : 0.000000 
	 Oscillating: no 

Axis[9]
	 Selected   : no 
	 Iterative  : no 
	 Start Angle: 0.000000 
	 Stop Angle : 0.000000 
	 Step Size  : 0.000000 
	 Oscillating: no 




	   Deg.    Counts 	   Time 	    ESD   

Range 0
  15.000	        96	    1200	     9.798
  15.020	        99	    1200	     9.950
  15.040	       105	    1200	    10.247
  15.060	        99	    1200	     9.950
  15.080	       126	    1200	    11.225
  15.100	       111	    1200	    10.536
  15.120	       123	    1200	    11.091
  15.140	       112	    1200	    10.583
  15.160	        96	    1200	     9.798
  15.180	        98	    1200	     9.899
  15.200	       106	    1200	    10.296
  15.220	        96	    1200	     9.798
  15.240	       117	    1200	    10.817
  15.260	       114	    1200	    10.677
  15.280	       122	    1200	    11.045
  15.300	        99	    1200	     9.950
  15.320	       109	    1200	    10.440
  15.340	        97	    1200	     9.849
  15.360	       104	    1200	    10.198
  15.380	       119	    1200	    10.909
  15.400	       104	    1200	    10.198
  15.420	       107	    1200	    10.344
  15.440	        94	    1200	     9.695
  15.460	       116	    1200	    10.770
  15.480	       117	    1200	    10.817
  15.500	       100	    1200	    10.000
  15.520	       109	    1200	    10.440
  15.540	       107	    1200	    10.344
  15.560	       103	    1200	    10.149
  15.580	        92	    1200	     9.592
  15.600	       103	    1200	    10.149
  15.620	       102	    1200	    10.100
  15.640	       104	    1200	    10.198
  15.660	       110	    1200	    10.488
  15.680	       115	    1200	    10.724
  15.700	       117	    1200	    10.817
  15.720	        98	    1200	     9.899
  15.740	       109	    1200	    10.440
  15.760	       100	    1200	    10.000
  15.780	       110	    1200	    10.488
  15.800	       100	    1200	    10.000
  15.820	        85	    1200	     9.220
  15.840	        93	    1200	     9.644
  15.860	       121	    1200	    11.000
  15.880	       104	    1200	    10.198
  15.900	       102	    1200	    10.100
  15.920	        92	    1200	     9.592
  15.940	        90	    1200	     9.487
  15.960	       110	    1200	    10.488
  15.980	        90	    1200	     9.487
  16.000	        93	    1200	     9.644
  16.020	       106	    1200	    10.296
  16.040	        94	    1200	     9.695
  16.060	        96	    1200	     9.798
  16.080	        98	    1200	     9.899
  16.100	       104	    1200	    10.198
  16.120	       111	    1200	    10.536
  16.140	       110	    1200	    10.488
  16.160	        97	    1200	     9.849
  16.180	        90	    1200	     9.487
  16.200	       108	    1200	    10.392
  16.220	        69	    1200	     8.307
  16.240	       100	    1200	    10.000
  16.260	        93	    1200	     9.644
  16.280	        92	    1200	     9.592
  16.300	        98	    1200	     9.899
  16.320	       111	    1200	    10.536
  16.340	       118	    1200	    10.863
  16.360	        93	    1200	     9.644
  16.380	        99	    1200	     9.950
  16.400	        95	    1200	     9.747
  16.420	        97	    1200	     9.849
  16.440	       119	    1200	    10.909
  16.460	        97	    1200	     9.849
  16.480	        88	    1200	     9.381
  16.500	       100	    1200	    10.000
  16.520	        93	    1200	     9.644
  16.540	        98	    1200	     9.899
  16.560	        85	    1200	     9.220
  16.580	       107	    1200	    10.344
  16.600	       119	    1200	    10.909
  16.620	        97	    1200	     9.849
  16.640	       114	    1200	    10.677
  16.660	       112	    1200	    10.583
  16.680	        84	    1200	     9.165
  16.700	       109	    1200	    10.440
  16.720	        95	    1200	     9.747
  16.740	       100	    1200	    10.000
  16.760	       104	    1200	    10.198
  16.780	       100	    1200	    10.000
  16.800	       121	    1200	    11.000
  16.820	        96	    1200	     9.798
  16.840	        79	    1200	     8.888
  16.860	       101	    1200	    10.050
  16.880	       102	    1200	    10.100
  16.900	        95	    1200	     9.747
  16.920	        96	    1200	     9.798
  16.940	       112	    1200	    10.583
  16.960	       102	    1200	    10.100
  16.980	       100	    1200	    10.000
  17.000	        95	    1200	     9.747
  17.020	       105	    1200	    10.247
  17.040	       106	    1200	    10.296
  17.060	       103	    1200	    10.149
  17.080	        98	    1200	     9.899
  17.100	        96	    1200	     9.798
  17.120	        98	    1200	     9.899
  17.140	        83	    1200	     9.110
  17.160	        98	    1200	     9.899
  17.180	        86	    1200	     9.274
  17.200	        81	    1200	     9.000
  17.220	       103	    1200	    10.149
  17.240	        99	    1200	     9.950
  17.260	        98	    1200	     9.899
  17.280	        96	    1200	     9.798
  17.300	        89	    1200	     9.434
  17.320	        94	    1200	     9.695
  17.340	        89	    1200	     9.434
  17.360	       100	    1200	    10.000
  17.380	        95	    1200	     9.747
  17.400	       114	    1200	    10.677
  17.420	        90	    1200	     9.487
  17.440	        96	    1200	     9.798
  17.460	        97	    1200	     9.849
  17.480	        99	    1200	     9.950
  17.500	        85	    1200	     9.220
  17.520	        89	    1200	     9.434
  17.540	        98	    1200	     9.899
  17.560	       104	    1200	    10.198
  17.580	       102	    1200	    10.100
  17.600	        92	    1200	     9.592
  17.620	        97	    1200	     9.849
  17.640	       110	    1200	    10.488
  17.660	        95	    1200	     9.747
  17.680	       103	    1200	    10.149
  17.700	        96	    1200	     9.798
  17.720	        87	    1200	     9.327
  17.740	       113	    1200	    10.630
  17.760	       106	    1200	    10.296
  17.780	        85	    1200	     9.220
  17.800	       123	    1200	    11.091
  17.820	        87	    1200	     9.327
  17.840	       114	    1200	    10.677
  17.860	        90	    1200	     9.487
  17.880	       100	    1200	    10.000
  17.900	        97	    1200	     9.849
  17.920	       104	    1200	    10.198
  17.940	       103	    1200	    10.149
  17.960	        73	    1200	     8.544
  17.980	        89	    1200	     9.434
  18.000	       101	    1200	    10.050
  18.020	        94	    1200	     9.695
  18.040	        88	    1200	     9.381
  18.060	       111	    1200	    10.536
  18.080	        99	    1200	     9.950
  18.100	        89	    1200	     9.434
  18.120	       108	    1200	    10.392
  18.140	        82	    1200	     9.055
  18.160	       105	    1200	    10.247
  18.180	        91	    1200	     9.539
  18.200	        95	    1200	     9.747
  18.220	        92	    1200	     9.592
  18.240	       118	    1200	    10.863
  18.260	       114	    1200	    10.677
  18.280	       104	    1200	    10.198
  18.300	       100	    1200	    10.000
  18.320	        94	    1200	     9.695
  18.340	       108	    1200	    10.392
  18.360	        83	    1200	     9.110
  18.380	        90	    1200	     9.487
  18.400	        86	    1200	     9.274
  18.420	       108	    1200	    10.392
  18.440	       109	    1200	    10.440
  18.460	        91	    1200	     9.539
  18.480	        96	    1200	     9.798
  18.500	       115	    1200	    10.724
  18.520	       113	    1200	    10.630
  18.540	        85	    1200	     9.220
  18.560	       100	    1200	    10.000
  18.580	       116	    1200	    10.770
  18.600	       102	    1200	    10.100
  18.620	        98	    1200	     9.899
  18.640	       110	    1200	    10.488
  18.660	       110	    1200	    10.488
  18.680	        95	    1200	     9.747
  18.700	        86	    1200	     9.274
  18.720	       110	    1200	    10.488
  18.740	        87	    1200	     9.327
  18.760	       110	    1200	    10.488
  18.780	       115	    1200	    10.724
  18.800	        88	    1200	     9.381
  18.820	        92	    1200	     9.592
  18.840	       104	    1200	    10.198
  18.860	       100	    1200	    10.000
  18.880	       106	    1200	    10.296
  18.900	        84	    1200	     9.165
  18.920	        94	    1200	     9.695
  18.940	       122	    1200	    11.045
  18.960	        87	    1200	     9.327
  18.980	       102	    1200	    10.100
  19.000	        93	    1200	     9.644
  19.020	       110	    1200	    10.488
  19.040	       104	    1200	    10.198
  19.060	       104	    1200	    10.198
  19.080	       103	    1200	    10.149
  19.100	       110	    1200	    10.488
  19.120	       109	    1200	    10.440
  19.140	        95	    1200	     9.747
  19.160	        93	    1200	     9.644
  19.180	       106	    1200	    10.296
  19.200	        99	    1200	     9.950
  19.220	        99	    1200	     9.950
  19.240	       102	    1200	    10.100
  19.260	       100	    1200	    10.000
  19.280	        98	    1200	     9.899
  19.300	       100	    1200	    10.000
  19.320	       108	    1200	    10.392
  19.340	        94	    1200	     9.695
  19.360	        81	    1200	     9.000
  19.380	       111	    1200	    10.536
  19.400	        97	    1200	     9.849
  19.420	        91	    1200	     9.539
  19.440	        93	    1200	     9.644
  19.460	       103	    1200	    10.149
  19.480	       109	    1200	    10.440
  19.500	       107	    1200	    10.344
  19.520	        98	    1200	     9.899
  19.540	       117	    1200	    10.817
  19.560	        94	    1200	     9.695
  19.580	       103	    1200	    10.149
  19.600	        92	    1200	     9.592
  19.620	       100	    1200	    10.000
  19.640	       104	    1200	    10.198
  19.660	        91	    1200	     9.539
  19.680	        76	    1200	     8.718
  19.700	        98	    1200	     9.899
  19.720	        97	    1200	     9.849
  19.740	        96	    1200	     9.798
  19.760	        98	    1200	     9.899
  19.780	       102	    1200	    10.100
  19.800	        97	    1200	     9.849
  19.820	        90	    1200	     9.487
  19.840	       105	    1200	    10.247
  19.860	        96	    1200	     9.798
  19.880	       111	    1200	    10.536
  19.900	        92	    1200	     9.592
  19.920	       110	    1200	    10.488
  19.940	       104	    1200	    10.198
  19.960	        93	    1200	     9.644
  19.980	        90	    1200	     9.487
  20.000	       103	    1200	    10.149
  20.020	       101	    1200	    10.050
  20.040	        93	    1200	     9.644
  20.060	       100	    1200	    10.000
  20.080	        91	    1200	     9.539
  20.100	       105	    1200	    10.247
  20.120	       105	    1200	    10.247
  20.140	        95	    1200	     9.747
  20.160	        98	    1200	     9.899
  20.180	       101	    1200	    10.050
  20.200	       122	    1200	    11.045
  20.220	       107	    1200	    10.344
  20.240	        86	    1200	     9.274
  20.260	        89	    1200	     9.434
  20.280	       109	    1200	    10.440
  20.300	        92	    1200	     9.592
  20.320	       104	    1200	    10.198
  20.340	        86	    1200	     9.274
  20.360	        94	    1200	     9.695
  20.380	       114	    1200	    10.677
  20.400	       100	    1200	    10.000
  20.420	       100	    1200	    10.000
  20.440	       106	    1200	    10.296
  20.460	       100	    1200	    10.000
  20.480	        90	    1200	     9.487
  20.500	        93	    1200	     9.644
  20.520	       109	    1200	    10.440
  20.540	       101	    1200	    10.050
  20.560	        92	    1200	     9.592
  20.580	        99	    1200	     9.950
  20.600	        93	    1200	     9.644
  20.620	        94	    1200	     9.695
  20.640	        92	    1200	     9.592
  20.660	        96	    1200	     9.798
  20.680	       120	    1200	    10.954
  20.700	       104	    1200	    10.198
  20.720	        97	    1200	     9.849
  20.740	        99	    1200	     9.950
  20.760	        96	    1200	     9.798
  20.780	        79	    1200	     8.888
  20.800	       110	    1200	    10.488
  20.820	       106	    1200	    10.296
  20.840	        94	    1200	     9.695
  20.860	       115	    1200	    10.724
  20.880	        79	    1200	     8.888
  20.900	       105	    1200	    10.247
  20.920	        94	    1200	     9.695
  20.940	        89	    1200	     9.434
  20.960	        92	    1200	     9.592
  20.980	       105	    1200	    10.247
  21.000	       107	    1200	    10.344
  21.020	       124	    1200	    11.136
  21.040	        93	    1200	     9.644
  21.060	        92	    1200	     9.592
  21.080	       120	    1200	    10.954
  21.100	       103	    1200	    10.149
  21.120	       116	    1200	    10.770
  21.140	        73	    1200	     8.544
  21.160	        86	    1200	     9.274
  21.180	       103	    1200	    10.149
  21.200	        92	    1200	     9.592
  21.220	       113	    1200	    10.630
  21.240	       102	    1200	    10.100
  21.260	        87	    1200	     9.327
  21.280	       109	    1200	    10.440
  21.300	        99	    1200	     9.950
  21.320	        97	    1200	     9.849
  21.340	        90	    1200	     9.487
  21.360	       103	    1200	    10.149
  21.380	       112	    1200	    10.583
  21.400	       114	    1200	    10.677
  21.420	        90	    1200	     9.487
  21.440	        89	    1200	     9.434
  21.460	        92	    1200	     9.592
  21.480	        97	    1200	     9.849
  21.500	        95	    1200	     9.747
  21.520	        88	    1200	     9.381
  21.540	        97	    1200	     9.849
  21.560	       100	    1200	    10.000
  21.580	        97	    1200	     9.849
  21.600	        86	    1200	     9.274
  21.620	        87	    1200	     9.327
  21.640	        71	    1200	     8.426
  21.660	       114	    1200	    10.677
  21.680	       102	    1200	    10.100
  21.700	        94	    1200	     9.695
  21.720	       105	    1200	    10.247
  21.740	        94	    1200	     9.695
  21.760	       108	    1200	    10.392
  21.780	       106	    1200	    10.296
  21.800	       109	    1200	    10.440
  21.820	        94	    1200	     9.695
  21.840	        97	    1200	     9.849
  21.860	        85	    1200	     9.220
  21.880	        95	    1200	     9.747
  21.900	        97	    1200	     9.849
  21.920	       115	    1200	    10.724
  21.940	       113	    1200	    10.630
  21.960	        95	    1200	     9.747
  21.980	       100	    1200	    10.000
  22.000	        89	    1200	     9.434
  22.020	       106	    1200	    10.296
  22.040	        97	    1200	     9.849
  22.060	        85	    1200	     9.220
  22.080	        84	    1200	     9.165
  22.100	        91	    1200	     9.539
  22.120	        86	    1200	     9.274
  22.140	        93	    1200	     9.644
  22.160	       101	    1200	    10.050
  22.180	        84	    1200	     9.165
  22.200	       107	    1200	    10.344
  22.220	       104	    1200	    10.198
  22.240	        88	    1200	     9.381
  22.260	        99	    1200	     9.950
  22.280	        90	    1200	     9.487
  22.300	       103	    1200	    10.149
  22.320	       105	    1200	    10.247
  22.340	       103	    1200	    10.149
  22.360	        91	    1200	     9.539
  22.380	       101	    1200	    10.050
  22.400	       106	    1200	    10.296
  22.420	        85	    1200	     9.220
  22.440	        97	    1200	     9.849
  22.460	       115	    1200	    10.724
  22.480	        85	    1200	     9.220
  22.500	        84	    1200	     9.165
  22.520	       109	    1200	    10.440
  22.540	        92	    1200	     9.592
  22.560	       109	    1200	    10.440
  22.580	        87	    1200	     9.327
  22.600	        92	    1200	     9.592
  22.620	        87	    1200	     9.327
  22.640	       116	    1200	    10.770
  22.660	       102	    1200	    10.100
  22.680	       130	    1200	    11.402
  22.700	       116	    1200	    10.770
  22.720	       117	    1200	    10.817
  22.740	       153	    1200	    12.369
  22.760	       125	    1200	    11.180
  22.780	       118	    1200	    10.863
  22.800	       130	    1200	    11.402
  22.820	       135	    1200	    11.619
  22.840	       118	    1200	    10.863
  22.860	       121	    1200	    11.000
  22.880	       105	    1200	    10.247
  22.900	        92	    1200	     9.592
  22.920	       106	    1200	    10.296
  22.940	       127	    1200	    11.269
  22.960	       100	    1200	    10.000
  22.980	        89	    1200	     9.434
  23.000	        83	    1200	     9.110
  23.020	       105	    1200	    10.247
  23.040	        93	    1200	     9.644
  23.060	        89	    1200	     9.434
  23.080	        85	    1200	     9.220
  23.100	        92	    1200	     9.592
  23.120	        96	    1200	     9.798
  23.140	       103	    1200	    10.149
  23.160	        95	    1200	     9.747
  23.180	        97	    1200	     9.849
  23.200	        96	    1200	     9.798
  23.220	        89	    1200	     9.434
  23.240	        71	    1200	     8.426
  23.260	       102	    1200	    10.100
  23.280	       104	    1200	    10.198
  23.300	        99	    1200	     9.950
  23.320	        99	    1200	     9.950
  23.340	        93	    1200	     9.644
  23.360	        85	    1200	     9.220
  23.380	       110	    1200	    10.488
  23.400	        82	    1200	     9.055
  23.420	        88	    1200	     9.381
  23.440	       101	    1200	    10.050
  23.460	        94	    1200	     9.695
  23.480	        85	    1200	     9.220
  23.500	       113	    1200	    10.630
  23.520	        98	    1200	     9.899
  23.540	        95	    1200	     9.747
  23.560	        87	    1200	     9.327
  23.580	        86	    1200	     9.274
  23.600	        96	    1200	     9.798
  23.620	        84	    1200	     9.165
  23.640	        81	    1200	     9.000
  23.660	       101	    1200	    10.050
  23.680	        99	    1200	     9.950
  23.700	        83	    1200	     9.110
  23.720	        86	    1200	     9.274
  23.740	        88	    1200	     9.381
  23.760	       108	    1200	    10.392
  23.780	        91	    1200	     9.539
  23.800	        88	    1200	     9.381
  23.820	        93	    1200	     9.644
  23.840	        91	    1200	     9.539
  23.860	        85	    1200	     9.220
  23.880	        90	    1200	     9.487
  23.900	        83	    1200	     9.110
  23.920	        86	    1200	     9.274
  23.940	        85	    1200	     9.220
  23.960	       101	    1200	    10.050
  23.980	        96	    1200	     9.798
  24.000	        97	    1200	     9.849
  24.020	        96	    1200	     9.798
  24.040	       103	    1200	    10.149
  24.060	        89	    1200	     9.434
  24.080	       102	    1200	    10.100
  24.100	        82	    1200	     9.055
  24.120	        98	    1200	     9.899
  24.140	        79	    1200	     8.888
  24.160	       101	    1200	    10.050
  24.180	        93	    1200	     9.644
  24.200	        90	    1200	     9.487
  24.220	        92	    1200	     9.592
  24.240	       105	    1200	    10.247
  24.260	        80	    1200	     8.944
  24.280	        89	    1200	     9.434
  24.300	        87	    1200	     9.327
  24.320	        80	    1200	     8.944
  24.340	        91	    1200	     9.539
  24.360	        88	    1200	     9.381
  24.380	        66	    1200	     8.124
  24.400	       111	    1200	    10.536
  24.420	        79	    1200	     8.888
  24.440	       117	    1200	    10.817
  24.460	        92	    1200	     9.592
  24.480	        72	    1200	     8.485
  24.500	        82	    1200	     9.055
  24.520	        93	    1200	     9.644
  24.540	        79	    1200	     8.888
  24.560	        93	    1200	     9.644
  24.580	        92	    1200	     9.592
  24.600	       105	    1200	    10.247
  24.620	        87	    1200	     9.327
  24.640	        88	    1200	     9.381
  24.660	        67	    1200	     8.185
  24.680	       101	    1200	    10.050
  24.700	        94	    1200	     9.695
  24.720	        93	    1200	     9.644
  24.740	        97	    1200	     9.849
  24.760	        93	    1200	     9.644
  24.780	        71	    1200	     8.426
  24.800	        77	    1200	     8.775
  24.820	        87	    1200	     9.327
  24.840	        79	    1200	     8.888
  24.860	        76	    1200	     8.718
  24.880	        85	    1200	     9.220
  24.900	        94	    1200	     9.695
  24.920	        89	    1200	     9.434
  24.940	        97	    1200	     9.849
  24.960	        88	    1200	     9.381
  24.980	        87	    1200	     9.327
  25.000	        79	    1200	     8.888
  25.020	        80	    1200	     8.944
  25.040	        88	    1200	     9.381
  25.060	        85	    1200	     9.220
  25.080	        74	    1200	     8.602
  25.100	        78	    1200	     8.832
  25.120	        84	    1200	     9.165
  25.140	       116	    1200	    10.770
  25.160	        69	    1200	     8.307
  25.180	        74	    1200	     8.602
  25.200	        91	    1200	     9.539
  25.220	        84	    1200	     9.165
  25.240	        78	    1200	     8.832
  25.260	        82	    1200	     9.055
  25.280	        99	    1200	     9.950
  25.300	        95	    1200	     9.747
  25.320	        90	    1200	     9.487
  25.340	        95	    1200	     9.747
  25.360	        91	    1200	     9.539
  25.380	        86	    1200	     9.274
  25.400	        78	    1200	     8.832
  25.420	        74	    1200	     8.602
  25.440	        86	    1200	     9.274
  25.460	        96	    1200	     9.798
  25.480	        81	    1200	     9.000
  25.500	        83	    1200	     9.110
  25.520	        81	    1200	     9.000
  25.540	        85	    1200	     9.220
  25.560	        79	    1200	     8.888
  25.580	        68	    1200	     8.246
  25.600	        82	    1200	     9.055
  25.620	        72	    1200	     8.485
  25.640	        89	    1200	     9.434
  25.660	        84	    1200	     9.165
  25.680	        88	    1200	     9.381
  25.700	        88	    1200	     9.381
  25.720	        99	    1200	     9.950
  25.740	        63	    1200	     7.937
  25.760	        80	    1200	     8.944
  25.780	        79	    1200	     8.888
  25.800	        95	    1200	     9.747
  25.820	        74	    1200	     8.602
  25.840	        86	    1200	     9.274
  25.860	        76	    1200	     8.718
  25.880	        85	    1200	     9.220
  25.900	        76	    1200	     8.718
  25.920	        94	    1200	     9.695
  25.940	        94	    1200	     9.695
  25.960	        75	    1200	     8.660
  25.980	        84	    1200	     9.165
  26.000	        74	    1200	     8.602
  26.020	        78	    1200	     8.832
  26.040	        71	    1200	     8.426
  26.060	        70	    1200	     8.367
  26.080	        73	    1200	     8.544
  26.100	        76	    1200	     8.718
  26.120	        77	    1200	     8.775
  26.140	        78	    1200	     8.832
  26.160	        86	    1200	     9.274
  26.180	        86	    1200	     9.274
  26.200	        83	    1200	     9.110
  26.220	        90	    1200	     9.487
  26.240	        73	    1200	     8.544
  26.260	        72	    1200	     8.485
  26.280	        72	    1200	     8.485
  26.300	        73	    1200	     8.544
  26.320	        74	    1200	     8.602
  26.340	        73	    1200	     8.544
  26.360	        80	    1200	     8.944
  26.380	        66	    1200	     8.124
  26.400	        71	    1200	     8.426
  26.420	       104	    1200	    10.198
  26.440	        95	    1200	     9.747
  26.460	       115	    1200	    10.724
  26.480	       100	    1200	    10.000
  26.500	       122	    1200	    11.045
  26.520	       103	    1200	    10.149
  26.540	        98	    1200	     9.899
  26.560	        95	    1200	     9.747
  26.580	        92	    1200	     9.592
  26.600	        94	    1200	     9.695
  26.620	        75	    1200	     8.660
  26.640	        77	    1200	     8.775
  26.660	        77	    1200	     8.775
  26.680	        85	    1200	     9.220
  26.700	        79	    1200	     8.888
  26.720	        77	    1200	     8.775
  26.740	        82	    1200	     9.055
  26.760	        87	    1200	     9.327
  26.780	        64	    1200	     8.000
  26.800	        78	    1200	     8.832
  26.820	        62	    1200	     7.874
  26.840	        63	    1200	     7.937
  26.860	        78	    1200	     8.832
  26.880	        74	    1200	     8.602
  26.900	        72	    1200	     8.485
  26.920	        73	    1200	     8.544
  26.940	        68	    1200	     8.246
  26.960	        77	    1200	     8.775
  26.980	        76	    1200	     8.718
  27.000	        70	    1200	     8.367
  27.020	        77	    1200	     8.775
  27.040	        86	    1200	     9.274
  27.060	        67	    1200	     8.185
  27.080	        71	    1200	     8.426
  27.100	        87	    1200	     9.327
  27.120	        90	    1200	     9.487
  27.140	        72	    1200	     8.485
  27.160	        72	    1200	     8.485
  27.180	        80	    1200	     8.944
  27.200	        90	    1200	     9.487
  27.220	        54	    1200	     7.348
  27.240	        58	    1200	     7.616
  27.260	        91	    1200	     9.539
  27.280	        80	    1200	     8.944
  27.300	        80	    1200	     8.944
  27.320	        68	    1200	     8.246
  27.340	        78	    1200	     8.832
  27.360	        84	    1200	     9.165
  27.380	        72	    1200	     8.485
  27.400	        82	    1200	     9.055
  27.420	        66	    1200	     8.124
  27.440	        72	    1200	     8.485
  27.460	        80	    1200	     8.944
  27.480	        72	    1200	     8.485
  27.500	        60	    1200	     7.746
  27.520	        71	    1200	     8.426
  27.540	        67	    1200	     8.185
  27.560	        70	    1200	     8.367
  27.580	        76	    1200	     8.718
  27.600	        67	    1200	     8.185
  27.620	        68	    1200	     8.246
  27.640	        78	    1200	     8.832
  27.660	        76	    1200	     8.718
  27.680	        61	    1200	     7.810
  27.700	        60	    1200	     7.746
  27.720	        91	    1200	     9.539
  27.740	        58	    1200	     7.616
  27.760	        80	    1200	     8.944
  27.780	        47	    1200	     6.856
  27.800	        72	    1200	     8.485
  27.820	        66	    1200	     8.124
  27.840	        64	    1200	     8.000
  27.860	        67	    1200	     8.185
  27.880	        67	    1200	     8.185
  27.900	        65	    1200	     8.062
  27.920	        60	    1200	     7.746
  27.940	        65	    1200	     8.062
  27.960	        68	    1200	     8.246
  27.980	        64	    1200	     8.000
  28.000	        62	    1200	     7.874
  28.020	        79	    1200	     8.888
  28.040	        72	    1200	     8.485
  28.060	        87	    1200	     9.327
  28.080	        59	    1200	     7.681
  28.100	        79	    1200	     8.888
  28.120	        54	    1200	     7.348
  28.140	        80	    1200	     8.944
  28.160	        74	    1200	     8.602
  28.180	        70	    1200	     8.367
  28.200	        53	    1200	     7.280
  28.220	        81	    1200	     9.000
  28.240	        67	    1200	     8.185
  28.260	        79	    1200	     8.888
  28.280	        66	    1200	     8.124
  28.300	        45	    1200	     6.708
  28.320	        67	    1200	     8.185
  28.340	        78	    1200	     8.832
  28.360	        64	    1200	     8.000
  28.380	        63	    1200	     7.937
  28.400	        75	    1200	     8.660
  28.420	        66	    1200	     8.124
  28.440	        55	    1200	     7.416
  28.460	        76	    1200	     8.718
  28.480	        74	    1200	     8.602
  28.500	        74	    1200	     8.602
  28.520	        74	    1200	     8.602
  28.540	        76	    1200	     8.718
  28.560	        76	    1200	     8.718
  28.580	        64	    1200	     8.000
  28.600	        66	    1200	     8.124
  28.620	        53	    1200	     7.280
  28.640	        62	    1200	     7.874
  28.660	        66	    1200	     8.124
  28.680	        78	    1200	     8.832
  28.700	        63	    1200	     7.937
  28.720	        55	    1200	     7.416
  28.740	        73	    1200	     8.544
  28.760	        85	    1200	     9.220
  28.780	        76	    1200	     8.718
  28.800	        64	    1200	     8.000
  28.820	        71	    1200	     8.426
  28.840	        75	    1200	     8.660
  28.860	        80	    1200	     8.944
  28.880	        71	    1200	     8.426
  28.900	        72	    1200	     8.485
  28.920	        73	    1200	     8.544
  28.940	        68	    1200	     8.246
  28.960	        67	    1200	     8.185
  28.980	        80	    1200	     8.944
  29.000	        68	    1200	     8.246
  29.020	        73	    1200	     8.544
  29.040	        63	    1200	     7.937
  29.060	        77	    1200	     8.775
  29.080	        58	    1200	     7.616
  29.100	        67	    1200	     8.185
  29.120	        76	    1200	     8.718
  29.140	        65	    1200	     8.062
  29.160	        71	    1200	     8.426
  29.180	        73	    1200	     8.544
  29.200	        58	    1200	     7.616
  29.220	        69	    1200	     8.307
  29.240	        80	    1200	     8.944
  29.260	        48	    1200	     6.928
  29.280	        43	    1200	     6.557
  29.300	        85	    1200	     9.220
  29.320	        70	    1200	     8.367
  29.340	        66	    1200	     8.124
  29.360	        57	    1200	     7.550
  29.380	        55	    1200	     7.416
  29.400	        70	    1200	     8.367
  29.420	        49	    1200	     7.000
  29.440	        60	    1200	     7.746
  29.460	        70	    1200	     8.367
  29.480	        64	    1200	     8.000
  29.500	        87	    1200	     9.327
  29.520	        72	    1200	     8.485
  29.540	        64	    1200	     8.000
  29.560	        71	    1200	     8.426
  29.580	        63	    1200	     7.937
  29.600	        58	    1200	     7.616
  29.620	        69	    1200	     8.307
  29.640	        55	    1200	     7.416
  29.660	        55	    1200	     7.416
  29.680	        66	    1200	     8.124
  29.700	        53	    1200	     7.280
  29.720	        63	    1200	     7.937
  29.740	        58	    1200	     7.616
  29.760	        48	    1200	     6.928
  29.780	        51	    1200	     7.141
  29.800	        51	    1200	     7.141
  29.820	        70	    1200	     8.367
  29.840	        59	    1200	     7.681
  29.860	        70	    1200	     8.367
  29.880	        69	    1200	     8.307
  29.900	        54	    1200	     7.348
  29.920	        62	    1200	     7.874
  29.940	        57	    1200	     7.550
  29.960	        56	    1200	     7.483
  29.980	        71	    1200	     8.426
  30.000	        61	    1200	     7.810
  30.020	        61	    1200	     7.810
  30.040	        73	    1200	     8.544
  30.060	        71	    1200	     8.426
  30.080	        54	    1200	     7.348
  30.100	        41	    1200	     6.403
  30.120	        51	    1200	     7.141
  30.140	        58	    1200	     7.616
  30.160	        43	    1200	     6.557
  30.180	        58	    1200	     7.616
  30.200	        51	    1200	     7.141
  30.220	        59	    1200	     7.681
  30.240	        62	    1200	     7.874
  30.260	        56	    1200	     7.483
  30.280	        63	    1200	     7.937
  30.300	        52	    1200	     7.211
  30.320	        72	    1200	     8.485
  30.340	        51	    1200	     7.141
  30.360	        54	    1200	     7.348
  30.380	        56	    1200	     7.483
  30.400	        73	    1200	     8.544
  30.420	        65	    1200	     8.062
  30.440	        44	    1200	     6.633
  30.460	        63	    1200	     7.937
  30.480	        60	    1200	     7.746
  30.500	        63	    1200	     7.937
  30.520	        55	    1200	     7.416
  30.540	        61	    1200	     7.810
  30.560	        53	    1200	     7.280
  30.580	        63	    1200	     7.937
  30.600	        51	    1200	     7.141
  30.620	        66	    1200	     8.124
  30.640	        55	    1200	     7.416
  30.660	        68	    1200	     8.246
  30.680	        55	    1200	     7.416
  30.700	        56	    1200	     7.483
  30.720	        62	    1200	     7.874
  30.740	        49	    1200	     7.000
  30.760	        61	    1200	     7.810
  30.780	        59	    1200	     7.681
  30.800	        62	    1200	     7.874
  30.820	        59	    1200	     7.681
  30.840	        54	    1200	     7.348
  30.860	        65	    1200	     8.062
  30.880	        63	    1200	     7.937
  30.900	        65	    1200	     8.062
  30.920	        65	    1200	     8.062
  30.940	        44	    1200	     6.633
  30.960	        62	    1200	     7.874
  30.980	        78	    1200	     8.832
  31.000	        57	    1200	     7.550
  31.020	        63	    1200	     7.937
  31.040	        59	    1200	     7.681
  31.060	        75	    1200	     8.660
  31.080	        59	    1200	     7.681
  31.100	        66	    1200	     8.124
  31.120	        60	    1200	     7.746
  31.140	        44	    1200	     6.633
  31.160	        60	    1200	     7.746
  31.180	        54	    1200	     7.348
  31.200	        64	    1200	     8.000
  31.220	        66	    1200	     8.124
  31.240	        68	    1200	     8.246
  31.260	        66	    1200	     8.124
  31.280	        57	    1200	     7.550
  31.300	        68	    1200	     8.246
  31.320	        73	    1200	     8.544
  31.340	        64	    1200	     8.000
  31.360	        54	    1200	     7.348
  31.380	        61	    1200	     7.810
  31.400	        57	    1200	     7.550
  31.420	        64	    1200	     8.000
  31.440	        74	    1200	     8.602
  31.460	        69	    1200	     8.307
  31.480	        59	    1200	     7.681
  31.500	        74	    1200	     8.602
  31.520	        56	    1200	     7.483
  31.540	        64	    1200	     8.000
  31.560	        64	    1200	     8.000
  31.580	        62	    1200	     7.874
  31.600	        84	    1200	     9.165
  31.620	        60	    1200	     7.746
  31.640	        53	    1200	     7.280
  31.660	        69	    1200	     8.307
  31.680	        78	    1200	     8.832
  31.700	        82	    1200	     9.055
  31.720	        54	    1200	     7.348
  31.740	        73	    1200	     8.544
  31.760	        83	    1200	     9.110
  31.780	        69	    1200	     8.307
  31.800	        72	    1200	     8.485
  31.820	        70	    1200	     8.367
  31.840	        81	    1200	     9.000
  31.860	        98	    1200	     9.899
  31.880	        83	    1200	     9.110
  31.900	        94	    1200	     9.695
  31.920	        80	    1200	     8.944
  31.940	       106	    1200	    10.296
  31.960	       105	    1200	    10.247
  31.980	        93	    1200	     9.644
  32.000	       128	    1200	    11.314
  32.020	       121	    1200	    11.000
  32.040	       133	    1200	    11.533
  32.060	       141	    1200	    11.874
  32.080	       180	    1200	    13.416
  32.100	       204	    1200	    14.283
  32.120	       216	    1200	    14.697
  32.140	       268	    1200	    16.371
  32.160	       303	    1200	    17.407
  32.180	       365	    1200	    19.105
  32.200	       374	    1200	    19.339
  32.220	       439	    1200	    20.952
  32.240	       497	    1200	    22.293
  32.260	       577	    1200	    24.021
  32.280	       650	    1200	    25.495
  32.300	       693	    1200	    26.325
  32.320	       847	    1200	    29.103
  32.340	      1104	    1200	    33.226
  32.360	      1331	    1200	    36.483
  32.380	      1588	    1200	    39.850
  32.400	      2011	    1200	    44.844
  32.420	      2362	    1200	    48.600
  32.440	      2806	    1200	    52.972
  32.460	      3015	    1200	    54.909
  32.480	      3152	    1200	    56.143
  32.500	      3143	    1200	    56.062
  32.520	      3019	    1200	    54.945
  32.540	      2838	    1200	    53.273
  32.560	      2582	    1200	    50.813
  32.580	      2194	    1200	    46.840
  32.600	      1734	    1200	    41.641
  32.620	      1477	    1200	    38.432
  32.640	      1161	    1200	    34.073
  32.660	       895	    1200	    29.917
  32.680	       689	    1200	    26.249
  32.700	       557	    1200	    23.601
  32.720	       441	    1200	    21.000
  32.740	       317	    1200	    17.804
  32.760	       224	    1200	    14.967
  32.780	       229	    1200	    15.133
  32.800	       205	    1200	    14.318
  32.820	       182	    1200	    13.491
  32.840	       160	    1200	    12.649
  32.860	       135	    1200	    11.619
  32.880	       116	    1200	    10.770
  32.900	       111	    1200	    10.536
  32.920	       102	    1200	    10.100
  32.940	       101	    1200	    10.050
  32.960	       104	    1200	    10.198
  32.980	       104	    1200	    10.198
  33.000	        77	    1200	     8.775
  33.020	        93	    1200	     9.644
  33.040	        90	    1200	     9.487
  33.060	        96	    1200	     9.798
  33.080	        92	    1200	     9.592
  33.100	        76	    1200	     8.718
  33.120	        79	    1200	     8.888
  33.140	        86	    1200	     9.274
  33.160	        54	    1200	     7.348
  33.180	        79	    1200	     8.888
  33.200	        73	    1200	     8.544
  33.220	        67	    1200	     8.185
  33.240	        47	    1200	     6.856
  33.260	        67	    1200	     8.185
  33.280	        62	    1200	     7.874
  33.300	        53	    1200	     7.280
  33.320	        71	    1200	     8.426
  33.340	        52	    1200	     7.211
  33.360	        73	    1200	     8.544
  33.380	        66	    1200	     8.124
  33.400	        48	    1200	     6.928
  33.420	        55	    1200	     7.416
  33.440	        69	    1200	     8.307
  33.460	        53	    1200	     7.280
  33.480	        62	    1200	     7.874
  33.500	        57	    1200	     7.550
  33.520	        52	    1200	     7.211
  33.540	        66	    1200	     8.124
  33.560	        56	    1200	     7.483
  33.580	        59	    1200	     7.681
  33.600	        66	    1200	     8.124
  33.620	        52	    1200	     7.211
  33.640	        57	    1200	     7.550
  33.660	        69	    1200	     8.307
  33.680	        41	    1200	     6.403
  33.700	        55	    1200	     7.416
  33.720	        55	    1200	     7.416
  33.740	        48	    1200	     6.928
  33.760	        48	    1200	     6.928
  33.780	        58	    1200	     7.616
  33.800	        46	    1200	     6.782
  33.820	        46	    1200	     6.782
  33.840	        68	    1200	     8.246
  33.860	        44	    1200	     6.633
  33.880	        41	    1200	     6.403
  33.900	        38	    1200	     6.164
  33.920	        55	    1200	     7.416
  33.940	        53	    1200	     7.280
  33.960	        51	    1200	     7.141
  33.980	        53	    1200	     7.280
  34.000	        47	    1200	     6.856
  34.020	        44	    1200	     6.633
  34.040	        42	    1200	     6.481
  34.060	        43	    1200	     6.557
  34.080	        48	    1200	     6.928
  34.100	        44	    1200	     6.633
  34.120	        43	    1200	     6.557
  34.140	        42	    1200	     6.481
  34.160	        52	    1200	     7.211
  34.180	        45	    1200	     6.708
  34.200	        50	    1200	     7.071
  34.220	        40	    1200	     6.325
  34.240	        36	    1200	     6.000
  34.260	        45	    1200	     6.708
  34.280	        52	    1200	     7.211
  34.300	        50	    1200	     7.071
  34.320	        35	    1200	     5.916
  34.340	        51	    1200	     7.141
  34.360	        47	    1200	     6.856
  34.380	        47	    1200	     6.856
  34.400	        52	    1200	     7.211
  34.420	        54	    1200	     7.348
  34.440	        36	    1200	     6.000
  34.460	        52	    1200	     7.211
  34.480	        44	    1200	     6.633
  34.500	        31	    1200	     5.568
  34.520	        44	    1200	     6.633
  34.540	        47	    1200	     6.856
  34.560	        37	    1200	     6.083
  34.580	        36	    1200	     6.000
  34.600	        45	    1200	     6.708
  34.620	        53	    1200	     7.280
  34.640	        44	    1200	     6.633
  34.660	        54	    1200	     7.348
  34.680	        39	    1200	     6.245
  34.700	        44	    1200	     6.633
  34.720	        41	    1200	     6.403
  34.740	        35	    1200	     5.916
  34.760	        42	    1200	     6.481
  34.780	        44	    1200	     6.633
  34.800	        37	    1200	     6.083
  34.820	        36	    1200	     6.000
  34.840	        37	    1200	     6.083
  34.860	        45	    1200	     6.708
  34.880	        46	    1200	     6.782
  34.900	        39	    1200	     6.245
  34.920	        34	    1200	     5.831
  34.940	        27	    1200	     5.196
  34.960	        34	    1200	     5.831
  34.980	        49	    1200	     7.000
  35.000	        32	    1200	     5.657
  35.020	        39	    1200	     6.245
  35.040	        25	    1200	     5.000
  35.060	        47	    1200	     6.856
  35.080	        31	    1200	     5.568
  35.100	        34	    1200	     5.831
  35.120	        35	    1200	     5.916
  35.140	        43	    1200	     6.557
  35.160	        36	    1200	     6.000
  35.180	        38	    1200	     6.164
  35.200	        37	    1200	     6.083
  35.220	        44	    1200	     6.633
  35.240	        37	    1200	     6.083
  35.260	        38	    1200	     6.164
  35.280	        34	    1200	     5.831
  35.300	        35	    1200	     5.916
  35.320	        30	    1200	     5.477
  35.340	        35	    1200	     5.916
  35.360	        27	    1200	     5.196
  35.380	        33	    1200	     5.745
  35.400	        34	    1200	     5.831
  35.420	        42	    1200	     6.481
  35.440	        41	    1200	     6.403
  35.460	        33	    1200	     5.745
  35.480	        34	    1200	     5.831
  35.500	        40	    1200	     6.325
  35.520	        41	    1200	     6.403
  35.540	        32	    1200	     5.657
  35.560	        44	    1200	     6.633
  35.580	        47	    1200	     6.856
  35.600	        39	    1200	     6.245
  35.620	        35	    1200	     5.916
  35.640	        35	    1200	     5.916
  35.660	        52	    1200	     7.211
  35.680	        43	    1200	     6.557
  35.700	        39	    1200	     6.245
  35.720	        36	    1200	     6.000
  35.740	        34	    1200	     5.831
  35.760	        35	    1200	     5.916
  35.780	        41	    1200	     6.403
  35.800	        30	    1200	     5.477
  35.820	        38	    1200	     6.164
  35.840	        35	    1200	     5.916
  35.860	        27	    1200	     5.196
  35.880	        46	    1200	     6.782
  35.900	        35	    1200	     5.916
  35.920	        23	    1200	     4.796
  35.940	        23	    1200	     4.796
  35.960	        34	    1200	     5.831
  35.980	        39	    1200	     6.245
  36.000	        42	    1200	     6.481
  36.020	        42	    1200	     6.481
  36.040	        39	    1200	     6.245
  36.060	        35	    1200	     5.916
  36.080	        32	    1200	     5.657
  36.100	        38	    1200	     6.164
  36.120	        34	    1200	     5.831
  36.140	        29	    1200	     5.385
  36.160	        43	    1200	     6.557
  36.180	        35	    1200	     5.916
  36.200	        34	    1200	     5.831
  36.220	        35	    1200	     5.916
  36.240	        43	    1200	     6.557
  36.260	        32	    1200	     5.657
  36.280	        34	    1200	     5.831
  36.300	        28	    1200	     5.292
  36.320	        25	    1200	     5.000
  36.340	        35	    1200	     5.916
  36.360	        27	    1200	     5.196
  36.380	        38	    1200	     6.164
  36.400	        32	    1200	     5.657
  36.420	        35	    1200	     5.916
  36.440	        31	    1200	     5.568
  36.460	        35	    1200	     5.916
  36.480	        32	    1200	     5.657
  36.500	        32	    1200	     5.657
  36.520	        20	    1200	     4.472
  36.540	        29	    1200	     5.385
  36.560	        34	    1200	     5.831
  36.580	        28	    1200	     5.292
  36.600	        34	    1200	     5.831
  36.620	        24	    1200	     4.899
  36.640	        31	    1200	     5.568
  36.660	        36	    1200	     6.000
  36.680	        29	    1200	     5.385
  36.700	        46	    1200	     6.782
  36.720	        41	    1200	     6.403
  36.740	        24	    1200	     4.899
  36.760	        30	    1200	     5.477
  36.780	        31	    1200	     5.568
  36.800	        23	    1200	     4.796
  36.820	        28	    1200	     5.292
  36.840	        34	    1200	     5.831
  36.860	        28	    1200	     5.292
  36.880	        27	    1200	     5.196
  36.900	        34	    1200	     5.831
  36.920	        41	    1200	     6.403
  36.940	        29	    1200	     5.385
  36.960	        39	    1200	     6.245
  36.980	        29	    1200	     5.385
  37.000	        29	    1200	     5.385
  37.020	        40	    1200	     6.325
  37.040	        30	    1200	     5.477
  37.060	        36	    1200	     6.000
  37.080	        24	    1200	     4.899
  37.100	        34	    1200	     5.831
  37.120	        23	    1200	     4.796
  37.140	        29	    1200	     5.385
  37.160	        36	    1200	     6.000
  37.180	        41	    1200	     6.403
  37.200	        27	    1200	     5.196
  37.220	        23	    1200	     4.796
  37.240	        18	    1200	     4.243
  37.260	        33	    1200	     5.745
  37.280	        29	    1200	     5.385
  37.300	        25	    1200	     5.000
  37.320	        32	    1200	     5.657
  37.340	        25	    1200	     5.000
  37.360	        33	    1200	     5.745
  37.380	        29	    1200	     5.385
  37.400	        18	    1200	     4.243
  37.420	        37	    1200	     6.083
  37.440	        29	    1200	     5.385
  37.460	        25	    1200	     5.000
  37.480	        32	    1200	     5.657
  37.500	        30	    1200	     5.477
  37.520	        34	    1200	     5.831
  37.540	        31	    1200	     5.568
  37.560	        31	    1200	     5.568
  37.580	        30	    1200	     5.477
  37.600	        30	    1200	     5.477
  37.620	        13	    1200	     3.606
  37.640	        30	    1200	     5.477
  37.660	        32	    1200	     5.657
  37.680	        22	    1200	     4.690
  37.700	        27	    1200	     5.196
  37.720	        33	    1200	     5.745
  37.740	        26	    1200	     5.099
  37.760	        33	    1200	     5.745
  37.780	        28	    1200	     5.292
  37.800	        28	    1200	     5.292
  37.820	        38	    1200	     6.164
  37.840	        31	    1200	     5.568
  37.860	        38	    1200	     6.164
  37.880	        40	    1200	     6.325
  37.900	        40	    1200	     6.325
  37.920	        32	    1200	     5.657
  37.940	        28	    1200	     5.292
  37.960	        34	    1200	     5.831
  37.980	        27	    1200	     5.196
  38.000	        26	    1200	     5.099
  38.020	        22	    1200	     4.690
  38.040	        38	    1200	     6.164
  38.060	        25	    1200	     5.000
  38.080	        27	    1200	     5.196
  38.100	        24	    1200	     4.899
  38.120	        32	    1200	     5.657
  38.140	        29	    1200	     5.385
  38.160	        27	    1200	     5.196
  38.180	        24	    1200	     4.899
  38.200	        33	    1200	     5.745
  38.220	        35	    1200	     5.916
  38.240	        27	    1200	     5.196
  38.260	        27	    1200	     5.196
  38.280	        29	    1200	     5.385
  38.300	        30	    1200	     5.477
  38.320	        34	    1200	     5.831
  38.340	        21	    1200	     4.583
  38.360	        31	    1200	     5.568
  38.380	        28	    1200	     5.292
  38.400	        40	    1200	     6.325
  38.420	        27	    1200	     5.196
  38.440	        29	    1200	     5.385
  38.460	        34	    1200	     5.831
  38.480	        31	    1200	     5.568
  38.500	        25	    1200	     5.000
  38.520	        40	    1200	     6.325
  38.540	        34	    1200	     5.831
  38.560	        23	    1200	     4.796
  38.580	        36	    1200	     6.000
  38.600	        31	    1200	     5.568
  38.620	        26	    1200	     5.099
  38.640	        33	    1200	     5.745
  38.660	        27	    1200	     5.196
  38.680	        21	    1200	     4.583
  38.700	        45	    1200	     6.708
  38.720	        36	    1200	     6.000
  38.740	        33	    1200	     5.745
  38.760	        37	    1200	     6.083
  38.780	        17	    1200	     4.123
  38.800	        26	    1200	     5.099
  38.820	        21	    1200	     4.583
  38.840	        30	    1200	     5.477
  38.860	        35	    1200	     5.916
  38.880	        34	    1200	     5.831
  38.900	        38	    1200	     6.164
  38.920	        29	    1200	     5.385
  38.940	        33	    1200	     5.745
  38.960	        35	    1200	     5.916
  38.980	        22	    1200	     4.690
  39.000	        27	    1200	     5.196
  39.020	        26	    1200	     5.099
  39.040	        37	    1200	     6.083
  39.060	        24	    1200	     4.899
  39.080	        35	    1200	     5.916
  39.100	        35	    1200	     5.916
  39.120	        50	    1200	     7.071
  39.140	        40	    1200	     6.325
  39.160	        31	    1200	     5.568
  39.180	        29	    1200	     5.385
  39.200	        34	    1200	     5.831
  39.220	        32	    1200	     5.657
  39.240	        38	    1200	     6.164
  39.260	        17	    1200	     4.123
  39.280	        37	    1200	     6.083
  39.300	        31	    1200	     5.568
  39.320	        48	    1200	     6.928
  39.340	        29	    1200	     5.385
  39.360	        40	    1200	     6.325
  39.380	        47	    1200	     6.856
  39.400	        26	    1200	     5.099
  39.420	        29	    1200	     5.385
  39.440	        35	    1200	     5.916
  39.460	        41	    1200	     6.403
  39.480	        43	    1200	     6.557
  39.500	        39	    1200	     6.245
  39.520	        33	    1200	     5.745
  39.540	        49	    1200	     7.000
  39.560	        47	    1200	     6.856
  39.580	        51	    1200	     7.141
  39.600	        44	    1200	     6.633
  39.620	        56	    1200	     7.483
  39.640	        51	    1200	     7.141
  39.660	        54	    1200	     7.348
  39.680	        67	    1200	     8.185
  39.700	        76	    1200	     8.718
  39.720	        77	    1200	     8.775
  39.740	        73	    1200	     8.544
  39.760	        73	    1200	     8.544
  39.780	        66	    1200	     8.124
  39.800	        72	    1200	     8.485
  39.820	        95	    1200	     9.747
  39.840	        98	    1200	     9.899
  39.860	       115	    1200	    10.724
  39.880	       115	    1200	    10.724
  39.900	       139	    1200	    11.790
  39.920	       146	    1200	    12.083
  39.940	       148	    1200	    12.166
  39.960	       189	    1200	    13.748
  39.980	       229	    1200	    15.133
  40.000	       267	    1200	    16.340
  40.020	       312	    1200	    17.664
  40.040	       358	    1200	    18.921
  40.060	       441	    1200	    21.000
  40.080	       467	    1200	    21.610
  40.100	       510	    1200	    22.583
  40.120	       497	    1200	    22.293
  40.140	       475	    1200	    21.794
  40.160	       489	    1200	    22.113
  40.180	       444	    1200	    21.071
  40.200	       386	    1200	    19.647
  40.220	       348	    1200	    18.655
  40.240	       292	    1200	    17.088
  40.260	       291	    1200	    17.059
  40.280	       215	    1200	    14.663
  40.300	       183	    1200	    13.528
  40.320	       133	    1200	    11.533
  40.340	       115	    1200	    10.724
  40.360	       103	    1200	    10.149
  40.380	        86	    1200	     9.274
  40.400	        69	    1200	     8.307
  40.420	        59	    1200	     7.681
  40.440	        55	    1200	     7.416
  40.460	        37	    1200	     6.083
  40.480	        61	    1200	     7.810
  40.500	        48	    1200	     6.928
  40.520	        44	    1200	     6.633
  40.540	        39	    1200	     6.245
  40.560	        44	    1200	     6.633
  40.580	        42	    1200	     6.481
  40.600	        42	    1200	     6.481
  40.620	        32	    1200	     5.657
  40.640	        44	    1200	     6.633
  40.660	        35	    1200	     5.916
  40.680	        34	    1200	     5.831
  40.700	        40	    1200	     6.325
  40.720	        45	    1200	     6.708
  40.740	        41	    1200	     6.403
  40.760	        35	    1200	     5.916
  40.780	        43	    1200	     6.557
  40.800	        25	    1200	     5.000
  40.820	        33	    1200	     5.745
  40.840	        31	    1200	     5.568
  40.860	        33	    1200	     5.745
  40.880	        39	    1200	     6.245
  40.900	        30	    1200	     5.477
  40.920	        44	    1200	     6.633
  40.940	        33	    1200	     5.745
  40.960	        30	    1200	     5.477
  40.980	        35	    1200	     5.916
  41.000	        26	    1200	     5.099
  41.020	        40	    1200	     6.325
  41.040	        30	    1200	     5.477
  41.060	        26	    1200	     5.099
  41.080	        22	    1200	     4.690
  41.100	        28	    1200	     5.292
  41.120	        39	    1200	     6.245
  41.140	        25	    1200	     5.000
  41.160	        36	    1200	     6.000
  41.180	        34	    1200	     5.831
  41.200	        28	    1200	     5.292
  41.220	        23	    1200	     4.796
  41.240	        29	    1200	     5.385
  41.260	        25	    1200	     5.000
  41.280	        31	    1200	     5.568
  41.300	        34	    1200	     5.831
  41.320	        33	    1200	     5.745
  41.340	        31	    1200	     5.568
  41.360	        29	    1200	     5.385
  41.380	        40	    1200	     6.325
  41.400	        25	    1200	     5.000
  41.420	        35	    1200	     5.916
  41.440	        33	    1200	     5.745
  41.460	        35	    1200	     5.916
  41.480	        29	    1200	     5.385
  41.500	        33	    1200	     5.745
  41.520	        29	    1200	     5.385
  41.540	        30	    1200	     5.477
  41.560	        34	    1200	     5.831
  41.580	        28	    1200	     5.292
  41.600	        24	    1200	     4.899
  41.620	        25	    1200	     5.000
  41.640	        28	    1200	     5.292
  41.660	        34	    1200	     5.831
  41.680	        28	    1200	     5.292
  41.700	        32	    1200	     5.657
  41.720	        20	    1200	     4.472
  41.740	        20	    1200	     4.472
  41.760	        31	    1200	     5.568
  41.780	        35	    1200	     5.916
  41.800	        41	    1200	     6.403
  41.820	        37	    1200	     6.083
  41.840	        33	    1200	     5.745
  41.860	        38	    1200	     6.164
  41.880	        39	    1200	     6.245
  41.900	        30	    1200	     5.477
  41.920	        42	    1200	     6.481
  41.940	        33	    1200	     5.745
  41.960	        28	    1200	     5.292
  41.980	        16	    1200	     4.000
  42.000	        37	    1200	     6.083
  42.020	        30	    1200	     5.477
  42.040	        33	    1200	     5.745
  42.060	        34	    1200	     5.831
  42.080	        29	    1200	     5.385
  42.100	        33	    1200	     5.745
  42.120	        37	    1200	     6.083
  42.140	        25	    1200	     5.000
  42.160	        29	    1200	     5.385
  42.180	        26	    1200	     5.099
  42.200	        26	    1200	     5.099
  42.220	        20	    1200	     4.472
  42.240	        25	    1200	     5.000
  42.260	        36	    1200	     6.000
  42.280	        29	    1200	     5.385
  42.300	        25	    1200	     5.000
  42.320	        25	    1200	     5.000
  42.340	        36	    1200	     6.000
  42.360	        30	    1200	     5.477
  42.380	        32	    1200	     5.657
  42.400	        27	    1200	     5.196
  42.420	        29	    1200	     5.385
  42.440	        28	    1200	     5.292
  42.460	        24	    1200	     4.899
  42.480	        25	    1200	     5.000
  42.500	        33	    1200	     5.745
  42.520	        29	    1200	     5.385
  42.540	        22	    1200	     4.690
  42.560	        42	    1200	     6.481
  42.580	        26	    1200	     5.099
  42.600	        27	    1200	     5.196
  42.620	        24	    1200	     4.899
  42.640	        33	    1200	     5.745
  42.660	        30	    1200	     5.477
  42.680	        40	    1200	     6.325
  42.700	        29	    1200	     5.385
  42.720	        35	    1200	     5.916
  42.740	        32	    1200	     5.657
  42.760	        28	    1200	     5.292
  42.780	        31	    1200	     5.568
  42.800	        35	    1200	     5.916
  42.820	        25	    1200	     5.000
  42.840	        29	    1200	     5.385
  42.860	        34	    1200	     5.831
  42.880	        38	    1200	     6.164
  42.900	        29	    1200	     5.385
  42.920	        28	    1200	     5.292
  42.940	        41	    1200	     6.403
  42.960	        34	    1200	     5.831
  42.980	        31	    1200	     5.568
  43.000	        30	    1200	     5.477
  43.020	        34	    1200	     5.831
  43.040	        33	    1200	     5.745
  43.060	        33	    1200	     5.745
  43.080	        28	    1200	     5.292
  43.100	        24	    1200	     4.899
  43.120	        26	    1200	     5.099
  43.140	        27	    1200	     5.196
  43.160	        22	    1200	     4.690
  43.180	        21	    1200	     4.583
  43.200	        27	    1200	     5.196
  43.220	        28	    1200	     5.292
  43.240	        29	    1200	     5.385
  43.260	        27	    1200	     5.196
  43.280	        26	    1200	     5.099
  43.300	        30	    1200	     5.477
  43.320	        27	    1200	     5.196
  43.340	        17	    1200	     4.123
  43.360	        23	    1200	     4.796
  43.380	        20	    1200	     4.472
  43.400	        34	    1200	     5.831
  43.420	        28	    1200	     5.292
  43.440	        36	    1200	     6.000
  43.460	        32	    1200	     5.657
  43.480	        31	    1200	     5.568
  43.500	        32	    1200	     5.657
  43.520	        20	    1200	     4.472
  43.540	        21	    1200	     4.583
  43.560	        21	    1200	     4.583
  43.580	        26	    1200	     5.099
  43.600	        39	    1200	     6.245
  43.620	        31	    1200	     5.568
  43.640	        18	    1200	     4.243
  43.660	        35	    1200	     5.916
  43.680	        31	    1200	     5.568
  43.700	        21	    1200	     4.583
  43.720	        31	    1200	     5.568
  43.740	        21	    1200	     4.583
  43.760	        35	    1200	     5.916
  43.780	        21	    1200	     4.583
  43.800	        28	    1200	     5.292
  43.820	        23	    1200	     4.796
  43.840	        25	    1200	     5.000
  43.860	        25	    1200	     5.000
  43.880	        25	    1200	     5.000
  43.900	        32	    1200	     5.657
  43.920	        35	    1200	     5.916
  43.940	        43	    1200	     6.557
  43.960	        34	    1200	     5.831
  43.980	        26	    1200	     5.099
  44.000	        35	    1200	     5.916
  44.020	        24	    1200	     4.899
  44.040	        27	    1200	     5.196
  44.060	        26	    1200	     5.099
  44.080	        23	    1200	     4.796
  44.100	        25	    1200	     5.000
  44.120	        36	    1200	     6.000
  44.140	        22	    1200	     4.690
  44.160	        26	    1200	     5.099
  44.180	        29	    1200	     5.385
  44.200	        19	    1200	     4.359
  44.220	        20	    1200	     4.472
  44.240	        30	    1200	     5.477
  44.260	        32	    1200	     5.657
  44.280	        31	    1200	     5.568
  44.300	        34	    1200	     5.831
  44.320	        31	    1200	     5.568
  44.340	        42	    1200	     6.481
  44.360	        23	    1200	     4.796
  44.380	        24	    1200	     4.899
  44.400	        30	    1200	     5.477
  44.420	        22	    1200	     4.690
  44.440	        30	    1200	     5.477
  44.460	        41	    1200	     6.403
  44.480	        27	    1200	     5.196
  44.500	        41	    1200	     6.403
  44.520	        39	    1200	     6.245
  44.540	        24	    1200	     4.899
  44.560	        32	    1200	     5.657
  44.580	        25	    1200	     5.000
  44.600	        26	    1200	     5.099
  44.620	        33	    1200	     5.745
  44.640	        34	    1200	     5.831
  44.660	        28	    1200	     5.292
  44.680	        23	    1200	     4.796
  44.700	        27	    1200	     5.196
  44.720	        23	    1200	     4.796
  44.740	        29	    1200	     5.385
  44.760	        37	    1200	     6.083
  44.780	        30	    1200	     5.477
  44.800	        32	    1200	     5.657
  44.820	        32	    1200	     5.657
  44.840	        39	    1200	     6.245
  44.860	        30	    1200	     5.477
  44.880	        30	    1200	     5.477
  44.900	        38	    1200	     6.164
  44.920	        30	    1200	     5.477
  44.940	        23	    1200	     4.796
  44.960	        30	    1200	     5.477
  44.980	        41	    1200	     6.403
  45.000	        33	    1200	     5.745
  45.020	        19	    1200	     4.359
  45.040	        38	    1200	     6.164
  45.060	        36	    1200	     6.000
  45.080	        29	    1200	     5.385
  45.100	        24	    1200	     4.899
  45.120	        31	    1200	     5.568
  45.140	        31	    1200	     5.568
  45.160	        27	    1200	     5.196
  45.180	        35	    1200	     5.916
  45.200	        26	    1200	     5.099
  45.220	        36	    1200	     6.000
  45.240	        41	    1200	     6.403
  45.260	        32	    1200	     5.657
  45.280	        31	    1200	     5.568
  45.300	        31	    1200	     5.568
  45.320	        29	    1200	     5.385
  45.340	        24	    1200	     4.899
  45.360	        24	    1200	     4.899
  45.380	        38	    1200	     6.164
  45.400	        30	    1200	     5.477
  45.420	        33	    1200	     5.745
  45.440	        31	    1200	     5.568
  45.460	        32	    1200	     5.657
  45.480	        40	    1200	     6.325
  45.500	        34	    1200	     5.831
  45.520	        38	    1200	     6.164
  45.540	        37	    1200	     6.083
  45.560	        32	    1200	     5.657
  45.580	        39	    1200	     6.245
  45.600	        33	    1200	     5.745
  45.620	        32	    1200	     5.657
  45.640	        28	    1200	     5.292
  45.660	        38	    1200	     6.164
  45.680	        34	    1200	     5.831
  45.700	        28	    1200	     5.292
  45.720	        28	    1200	     5.292
  45.740	        29	    1200	     5.385
  45.760	        30	    1200	     5.477
  45.780	        50	    1200	     7.071
  45.800	        36	    1200	     6.000
  45.820	        41	    1200	     6.403
  45.840	        43	    1200	     6.557
  45.860	        38	    1200	     6.164
  45.880	        37	    1200	     6.083
  45.900	        39	    1200	     6.245
  45.920	        39	    1200	     6.245
  45.940	        47	    1200	     6.856
  45.960	        46	    1200	     6.782
  45.980	        38	    1200	     6.164
  46.000	        59	    1200	     7.681
  46.020	        55	    1200	     7.416
  46.040	        47	    1200	     6.856
  46.060	        55	    1200	     7.416
  46.080	        68	    1200	     8.246
  46.100	        50	    1200	     7.071
  46.120	        82	    1200	     9.055
  46.140	        72	    1200	     8.485
  46.160	        76	    1200	     8.718
  46.180	        78	    1200	     8.832
  46.200	       121	    1200	    11.000
  46.220	       105	    1200	    10.247
  46.240	       124	    1200	    11.136
  46.260	       150	    1200	    12.247
  46.280	       162	    1200	    12.728
  46.300	       148	    1200	    12.166
  46.320	       150	    1200	    12.247
  46.340	       180	    1200	    13.416
  46.360	       162	    1200	    12.728
  46.380	       203	    1200	    14.248
  46.400	       198	    1200	    14.071
  46.420	       241	    1200	    15.524
  46.440	       256	    1200	    16.000
  46.460	       292	    1200	    17.088
  46.480	       317	    1200	    17.804
  46.500	       381	    1200	    19.519
  46.520	       355	    1200	    18.841
  46.540	       443	    1200	    21.048
  46.560	       544	    1200	    23.324
  46.580	       632	    1200	    25.140
  46.600	       768	    1200	    27.713
  46.620	       866	    1200	    29.428
  46.640	       932	    1200	    30.529
  46.660	      1009	    1200	    31.765
  46.680	       993	    1200	    31.512
  46.700	       994	    1200	    31.528
  46.720	       941	    1200	    30.676
  46.740	       979	    1200	    31.289
  46.760	       851	    1200	    29.172
  46.780	       845	    1200	    29.069
  46.800	       787	    1200	    28.054
  46.820	       739	    1200	    27.185
  46.840	       593	    1200	    24.352
  46.860	       564	    1200	    23.749
  46.880	       484	    1200	    22.000
  46.900	       465	    1200	    21.564
  46.920	       393	    1200	    19.824
  46.940	       333	    1200	    18.248
  46.960	       288	    1200	    16.971
  46.980	       230	    1200	    15.166
  47.000	       234	    1200	    15.297
  47.020	       169	    1200	    13.000
  47.040	       140	    1200	    11.832
  47.060	       153	    1200	    12.369
  47.080	       134	    1200	    11.576
  47.100	       122	    1200	    11.045
  47.120	       117	    1200	    10.817
  47.140	       102	    1200	    10.100
  47.160	        74	    1200	     8.602
  47.180	        72	    1200	     8.485
  47.200	        70	    1200	     8.367
  47.220	        54	    1200	     7.348
  47.240	        54	    1200	     7.348
  47.260	        58	    1200	     7.616
  47.280	        41	    1200	     6.403
  47.300	        51	    1200	     7.141
  47.320	        43	    1200	     6.557
  47.340	        49	    1200	     7.000
  47.360	        46	    1200	     6.782
  47.380	        36	    1200	     6.000
  47.400	        36	    1200	     6.000
  47.420	        40	    1200	     6.325
  47.440	        42	    1200	     6.481
  47.460	        32	    1200	     5.657
  47.480	        38	    1200	     6.164
  47.500	        47	    1200	     6.856
  47.520	        30	    1200	     5.477
  47.540	        36	    1200	     6.000
  47.560	        25	    1200	     5.000
  47.580	        33	    1200	     5.745
  47.600	        40	    1200	     6.325
  47.620	        35	    1200	     5.916
  47.640	        39	    1200	     6.245
  47.660	        37	    1200	     6.083
  47.680	        44	    1200	     6.633
  47.700	        29	    1200	     5.385
  47.720	        43	    1200	     6.557
  47.740	        34	    1200	     5.831
  47.760	        26	    1200	     5.099
  47.780	        40	    1200	     6.325
  47.800	        27	    1200	     5.196
  47.820	        33	    1200	     5.745
  47.840	        38	    1200	     6.164
  47.860	        30	    1200	     5.477
  47.880	        35	    1200	     5.916
  47.900	        40	    1200	     6.325
  47.920	        29	    1200	     5.385
  47.940	        34	    1200	     5.831
  47.960	        28	    1200	     5.292
  47.980	        25	    1200	     5.000
  48.000	        41	    1200	     6.403
  48.020	        30	    1200	     5.477
  48.040	        24	    1200	     4.899
  48.060	        36	    1200	     6.000
  48.080	        35	    1200	     5.916
  48.100	        34	    1200	     5.831
  48.120	        23	    1200	     4.796
  48.140	        27	    1200	     5.196
  48.160	        33	    1200	     5.745
  48.180	        34	    1200	     5.831
  48.200	        36	    1200	     6.000
  48.220	        34	    1200	     5.831
  48.240	        26	    1200	     5.099
  48.260	        23	    1200	     4.796
  48.280	        21	    1200	     4.583
  48.300	        29	    1200	     5.385
  48.320	        33	    1200	     5.745
  48.340	        27	    1200	     5.196
  48.360	        39	    1200	     6.245
  48.380	        28	    1200	     5.292
  48.400	        26	    1200	     5.099
  48.420	        38	    1200	     6.164
  48.440	        30	    1200	     5.477
  48.460	        24	    1200	     4.899
  48.480	        26	    1200	     5.099
  48.500	        23	    1200	     4.796
  48.520	        27	    1200	     5.196
  48.540	        18	    1200	     4.243
  48.560	        29	    1200	     5.385
  48.580	        21	    1200	     4.583
  48.600	        25	    1200	     5.000
  48.620	        27	    1200	     5.196
  48.640	        24	    1200	     4.899
  48.660	        30	    1200	     5.477
  48.680	        31	    1200	     5.568
  48.700	        31	    1200	     5.568
  48.720	        33	    1200	     5.745
  48.740	        29	    1200	     5.385
  48.760	        22	    1200	     4.690
  48.780	        27	    1200	     5.196
  48.800	        34	    1200	     5.831
  48.820	        27	    1200	     5.196
  48.840	        28	    1200	     5.292
  48.860	        28	    1200	     5.292
  48.880	        28	    1200	     5.292
  48.900	        32	    1200	     5.657
  48.920	        28	    1200	     5.292
  48.940	        22	    1200	     4.690
  48.960	        30	    1200	     5.477
  48.980	        29	    1200	     5.385
  49.000	        27	    1200	     5.196
  49.020	        22	    1200	     4.690
  49.040	        22	    1200	     4.690
  49.060	        32	    1200	     5.657
  49.080	        34	    1200	     5.831
  49.100	        30	    1200	     5.477
  49.120	        30	    1200	     5.477
  49.140	        27	    1200	     5.196
  49.160	        17	    1200	     4.123
  49.180	        20	    1200	     4.472
  49.200	        39	    1200	     6.245
  49.220	        28	    1200	     5.292
  49.240	        29	    1200	     5.385
  49.260	        24	    1200	     4.899
  49.280	        22	    1200	     4.690
  49.300	        28	    1200	     5.292
  49.320	        20	    1200	     4.472
  49.340	        23	    1200	     4.796
  49.360	        26	    1200	     5.099
  49.380	        24	    1200	     4.899
  49.400	        29	    1200	     5.385
  49.420	        20	    1200	     4.472
  49.440	        20	    1200	     4.472
  49.460	        24	    1200	     4.899
  49.480	        25	    1200	     5.000
  49.500	        21	    1200	     4.583
  49.520	        29	    1200	     5.385
  49.540	        19	    1200	     4.359
  49.560	        28	    1200	     5.292
  49.580	        34	    1200	     5.831
  49.600	        33	    1200	     5.745
  49.620	        25	    1200	     5.000
  49.640	        24	    1200	     4.899
  49.660	        33	    1200	     5.745
  49.680	        25	    1200	     5.000
  49.700	        16	    1200	     4.000
  49.720	        31	    1200	     5.568
  49.740	        38	    1200	     6.164
  49.760	        32	    1200	     5.657
  49.780	        21	    1200	     4.583
  49.800	        27	    1200	     5.196
  49.820	        31	    1200	     5.568
  49.840	        30	    1200	     5.477
  49.860	        30	    1200	     5.477
  49.880	        28	    1200	     5.292
  49.900	        39	    1200	     6.245
  49.920	        26	    1200	     5.099
  49.940	        25	    1200	     5.000
  49.960	        26	    1200	     5.099
  49.980	        23	    1200	     4.796
  50.000	        31	    1200	     5.568
  50.020	        27	    1200	     5.196
  50.040	        24	    1200	     4.899
  50.060	        22	    1200	     4.690
  50.080	        19	    1200	     4.359
  50.100	        17	    1200	     4.123
  50.120	        29	    1200	     5.385
  50.140	        30	    1200	     5.477
  50.160	        31	    1200	     5.568
  50.180	        22	    1200	     4.690
  50.200	        33	    1200	     5.745
  50.220	        29	    1200	     5.385
  50.240	        27	    1200	     5.196
  50.260	        21	    1200	     4.583
  50.280	        31	    1200	     5.568
  50.300	        24	    1200	     4.899
  50.320	        28	    1200	     5.292
  50.340	        24	    1200	     4.899
  50.360	        22	    1200	     4.690
  50.380	        23	    1200	     4.796
  50.400	        27	    1200	     5.196
  50.420	        30	    1200	     5.477
  50.440	        24	    1200	     4.899
  50.460	        25	    1200	     5.000
  50.480	        26	    1200	     5.099
  50.500	        23	    1200	     4.796
  50.520	        26	    1200	     5.099
  50.540	        21	    1200	     4.583
  50.560	        24	    1200	     4.899
  50.580	        23	    1200	     4.796
  50.600	        22	    1200	     4.690
  50.620	        20	    1200	     4.472
  50.640	        20	    1200	     4.472
  50.660	        27	    1200	     5.196
  50.680	        23	    1200	     4.796
  50.700	        26	    1200	     5.099
  50.720	        23	    1200	     4.796
  50.740	        31	    1200	     5.568
  50.760	        27	    1200	     5.196
  50.780	        28	    1200	     5.292
  50.800	        34	    1200	     5.831
  50.820	        21	    1200	     4.583
  50.840	        27	    1200	     5.196
  50.860	        23	    1200	     4.796
  50.880	        26	    1200	     5.099
  50.900	        26	    1200	     5.099
  50.920	        15	    1200	     3.873
  50.940	        20	    1200	     4.472
  50.960	        18	    1200	     4.243
  50.980	        25	    1200	     5.000
  51.000	        25	    1200	     5.000
  51.020	        26	    1200	     5.099
  51.040	        23	    1200	     4.796
  51.060	        20	    1200	     4.472
  51.080	        25	    1200	     5.000
  51.100	        21	    1200	     4.583
  51.120	        18	    1200	     4.243
  51.140	        24	    1200	     4.899
  51.160	        23	    1200	     4.796
  51.180	        34	    1200	     5.831
  51.200	        27	    1200	     5.196
  51.220	        23	    1200	     4.796
  51.240	        29	    1200	     5.385
  51.260	        20	    1200	     4.472
  51.280	        22	    1200	     4.690
  51.300	        28	    1200	     5.292
  51.320	        28	    1200	     5.292
  51.340	        24	    1200	     4.899
  51.360	        23	    1200	     4.796
  51.380	        23	    1200	     4.796
  51.400	        32	    1200	     5.657
  51.420	        30	    1200	     5.477
  51.440	        23	    1200	     4.796
  51.460	        29	    1200	     5.385
  51.480	        21	    1200	     4.583
  51.500	        22	    1200	     4.690
  51.520	        23	    1200	     4.796
  51.540	        22	    1200	     4.690
  51.560	        16	    1200	     4.000
  51.580	        23	    1200	     4.796
  51.600	        19	    1200	     4.359
  51.620	        27	    1200	     5.196
  51.640	        23	    1200	     4.796
  51.660	        27	    1200	     5.196
  51.680	        22	    1200	     4.690
  51.700	        26	    1200	     5.099
  51.720	        21	    1200	     4.583
  51.740	        27	    1200	     5.196
  51.760	        23	    1200	     4.796
  51.780	        17	    1200	     4.123
  51.800	        22	    1200	     4.690
  51.820	        34	    1200	     5.831
  51.840	        18	    1200	     4.243
  51.860	        28	    1200	     5.292
  51.880	        23	    1200	     4.796
  51.900	        26	    1200	     5.099
  51.920	        28	    1200	     5.292
  51.940	        26	    1200	     5.099
  51.960	        25	    1200	     5.000
  51.980	        38	    1200	     6.164
  52.000	        20	    1200	     4.472
  52.020	        22	    1200	     4.690
  52.040	        15	    1200	     3.873
  52.060	        31	    1200	     5.568
  52.080	        25	    1200	     5.000
  52.100	        29	    1200	     5.385
  52.120	        28	    1200	     5.292
  52.140	        34	    1200	     5.831
  52.160	        33	    1200	     5.745
  52.180	        22	    1200	     4.690
  52.200	        25	    1200	     5.000
  52.220	        25	    1200	     5.000
  52.240	        25	    1200	     5.000
  52.260	        26	    1200	     5.099
  52.280	        32	    1200	     5.657
  52.300	        39	    1200	     6.245
  52.320	        31	    1200	     5.568
  52.340	        31	    1200	     5.568
  52.360	        27	    1200	     5.196
  52.380	        23	    1200	     4.796
  52.400	        36	    1200	     6.000
  52.420	        34	    1200	     5.831
  52.440	        32	    1200	     5.657
  52.460	        42	    1200	     6.481
  52.480	        51	    1200	     7.141
  52.500	        39	    1200	     6.245
  52.520	        46	    1200	     6.782
  52.540	        45	    1200	     6.708
  52.560	        57	    1200	     7.550
  52.580	        51	    1200	     7.141
  52.600	        59	    1200	     7.681
  52.620	        54	    1200	     7.348
  52.640	        74	    1200	     8.602
  52.660	        42	    1200	     6.481
  52.680	        59	    1200	     7.681
  52.700	        56	    1200	     7.483
  52.720	        54	    1200	     7.348
  52.740	        47	    1200	     6.856
  52.760	        55	    1200	     7.416
  52.780	        51	    1200	     7.141
  52.800	        66	    1200	     8.124
  52.820	        32	    1200	     5.657
  52.840	        39	    1200	     6.245
  52.860	        41	    1200	     6.403
  52.880	        37	    1200	     6.083
  52.900	        25	    1200	     5.000
  52.920	        31	    1200	     5.568
  52.940	        26	    1200	     5.099
  52.960	        25	    1200	     5.000
  52.980	        33	    1200	     5.745
  53.000	        25	    1200	     5.000
  53.020	        28	    1200	     5.292
  53.040	        27	    1200	     5.196
  53.060	        22	    1200	     4.690
  53.080	        23	    1200	     4.796
  53.100	        28	    1200	     5.292
  53.120	        22	    1200	     4.690
  53.140	        28	    1200	     5.292
  53.160	        14	    1200	     3.742
  53.180	        23	    1200	     4.796
  53.200	        23	    1200	     4.796
  53.220	        22	    1200	     4.690
  53.240	        37	    1200	     6.083
  53.260	        28	    1200	     5.292
  53.280	        26	    1200	     5.099
  53.300	        25	    1200	     5.000
  53.320	        33	    1200	     5.745
  53.340	        22	    1200	     4.690
  53.360	        28	    1200	     5.292
  53.380	        22	    1200	     4.690
  53.400	        21	    1200	     4.583
  53.420	        20	    1200	     4.472
  53.440	        32	    1200	     5.657
  53.460	        25	    1200	     5.000
  53.480	        28	    1200	     5.292
  53.500	        20	    1200	     4.472
  53.520	        19	    1200	     4.359
  53.540	        27	    1200	     5.196
  53.560	        27	    1200	     5.196
  53.580	        25	    1200	     5.000
  53.600	        20	    1200	     4.472
  53.620	        25	    1200	     5.000
  53.640	        17	    1200	     4.123
  53.660	        32	    1200	     5.657
  53.680	        23	    1200	     4.796
  53.700	        29	    1200	     5.385
  53.720	        23	    1200	     4.796
  53.740	        32	    1200	     5.657
  53.760	        15	    1200	     3.873
  53.780	        21	    1200	     4.583
  53.800	        22	    1200	     4.690
  53.820	        30	    1200	     5.477
  53.840	        34	    1200	     5.831
  53.860	        26	    1200	     5.099
  53.880	        27	    1200	     5.196
  53.900	        21	    1200	     4.583
  53.920	        26	    1200	     5.099
  53.940	        27	    1200	     5.196
  53.960	        22	    1200	     4.690
  53.980	        22	    1200	     4.690
  54.000	        27	    1200	     5.196
  54.020	        18	    1200	     4.243
  54.040	        30	    1200	     5.477
  54.060	        24	    1200	     4.899
  54.080	        19	    1200	     4.359
  54.100	        24	    1200	     4.899
  54.120	        31	    1200	     5.568
  54.140	        15	    1200	     3.873
  54.160	        21	    1200	     4.583
  54.180	        19	    1200	     4.359
  54.200	        17	    1200	     4.123
  54.220	        34	    1200	     5.831
  54.240	        20	    1200	     4.472
  54.260	        19	    1200	     4.359
  54.280	        17	    1200	     4.123
  54.300	        29	    1200	     5.385
  54.320	        33	    1200	     5.745
  54.340	        17	    1200	     4.123
  54.360	        21	    1200	     4.583
  54.380	        29	    1200	     5.385
  54.400	        22	    1200	     4.690
  54.420	        26	    1200	     5.099
  54.440	        24	    1200	     4.899
  54.460	        25	    1200	     5.000
  54.480	        25	    1200	     5.000
  54.500	        30	    1200	     5.477
  54.520	        19	    1200	     4.359
  54.540	        32	    1200	     5.657
  54.560	        23	    1200	     4.796
  54.580	        28	    1200	     5.292
  54.600	        22	    1200	     4.690
  54.620	        28	    1200	     5.292
  54.640	        21	    1200	     4.583
  54.660	        32	    1200	     5.657
  54.680	        22	    1200	     4.690
  54.700	        19	    1200	     4.359
  54.720	        27	    1200	     5.196
  54.740	        23	    1200	     4.796
  54.760	        19	    1200	     4.359
  54.780	        27	    1200	     5.196
  54.800	        23	    1200	     4.796
  54.820	        41	    1200	     6.403
  54.840	        31	    1200	     5.568
  54.860	        22	    1200	     4.690
  54.880	        19	    1200	     4.359
  54.900	        26	    1200	     5.099
  54.920	        23	    1200	     4.796
  54.940	        16	    1200	     4.000
  54.960	        36	    1200	     6.000
  54.980	        18	    1200	     4.243
  55.000	        21	    1200	     4.583
  55.020	        24	    1200	     4.899
  55.040	        23	    1200	     4.796
  55.060	        24	    1200	     4.899
  55.080	        26	    1200	     5.099
  55.100	        26	    1200	     5.099
  55.120	        21	    1200	     4.583
  55.140	        21	    1200	     4.583
  55.160	        25	    1200	     5.000
  55.180	        31	    1200	     5.568
  55.200	        23	    1200	     4.796
  55.220	        24	    1200	     4.899
  55.240	        20	    1200	     4.472
  55.260	        22	    1200	     4.690
  55.280	        31	    1200	     5.568
  55.300	        33	    1200	     5.745
  55.320	        23	    1200	     4.796
  55.340	        25	    1200	     5.000
  55.360	        18	    1200	     4.243
  55.380	        19	    1200	     4.359
  55.400	        33	    1200	     5.745
  55.420	        18	    1200	     4.243
  55.440	        19	    1200	     4.359
  55.460	        38	    1200	     6.164
  55.480	        35	    1200	     5.916
  55.500	        25	    1200	     5.000
  55.520	        33	    1200	     5.745
  55.540	        35	    1200	     5.916
  55.560	        27	    1200	     5.196
  55.580	        27	    1200	     5.196
  55.600	        37	    1200	     6.083
  55.620	        21	    1200	     4.583
  55.640	        27	    1200	     5.196
  55.660	        35	    1200	     5.916
  55.680	        37	    1200	     6.083
  55.700	        19	    1200	     4.359
  55.720	        25	    1200	     5.000
  55.740	        17	    1200	     4.123
  55.760	        17	    1200	     4.123
  55.780	        24	    1200	     4.899
  55.800	        27	    1200	     5.196
  55.820	        29	    1200	     5.385
  55.840	        20	    1200	     4.472
  55.860	        24	    1200	     4.899
  55.880	        25	    1200	     5.000
  55.900	        28	    1200	     5.292
  55.920	        22	    1200	     4.690
  55.940	        26	    1200	     5.099
  55.960	        29	    1200	     5.385
  55.980	        28	    1200	     5.292
  56.000	        19	    1200	     4.359
  56.020	        29	    1200	     5.385
  56.040	        28	    1200	     5.292
  56.060	        21	    1200	     4.583
  56.080	        27	    1200	     5.196
  56.100	        22	    1200	     4.690
  56.120	        32	    1200	     5.657
  56.140	        31	    1200	     5.568
  56.160	        21	    1200	     4.583
  56.180	        24	    1200	     4.899
  56.200	        27	    1200	     5.196
  56.220	        21	    1200	     4.583
  56.240	        30	    1200	     5.477
  56.260	        30	    1200	     5.477
  56.280	        35	    1200	     5.916
  56.300	        31	    1200	     5.568
  56.320	        29	    1200	     5.385
  56.340	        22	    1200	     4.690
  56.360	        24	    1200	     4.899
  56.380	        31	    1200	     5.568
  56.400	        25	    1200	     5.000
  56.420	        32	    1200	     5.657
  56.440	        30	    1200	     5.477
  56.460	        23	    1200	     4.796
  56.480	        33	    1200	     5.745
  56.500	        23	    1200	     4.796
  56.520	        25	    1200	     5.000
  56.540	        25	    1200	     5.000
  56.560	        39	    1200	     6.245
  56.580	        30	    1200	     5.477
  56.600	        24	    1200	     4.899
  56.620	        24	    1200	     4.899
  56.640	        32	    1200	     5.657
  56.660	        27	    1200	     5.196
  56.680	        36	    1200	     6.000
  56.700	        30	    1200	     5.477
  56.720	        25	    1200	     5.000
  56.740	        33	    1200	     5.745
  56.760	        29	    1200	     5.385
  56.780	        32	    1200	     5.657
  56.800	        23	    1200	     4.796
  56.820	        29	    1200	     5.385
  56.840	        32	    1200	     5.657
  56.860	        28	    1200	     5.292
  56.880	        35	    1200	     5.916
  56.900	        27	    1200	     5.196
  56.920	        41	    1200	     6.403
  56.940	        40	    1200	     6.325
  56.960	        32	    1200	     5.657
  56.980	        22	    1200	     4.690
  57.000	        31	    1200	     5.568
  57.020	        34	    1200	     5.831
  57.040	        36	    1200	     6.000
  57.060	        33	    1200	     5.745
  57.080	        32	    1200	     5.657
  57.100	        33	    1200	     5.745
  57.120	        31	    1200	     5.568
  57.140	        33	    1200	     5.745
  57.160	        40	    1200	     6.325
  57.180	        38	    1200	     6.164
  57.200	        35	    1200	     5.916
  57.220	        35	    1200	     5.916
  57.240	        32	    1200	     5.657
  57.260	        41	    1200	     6.403
  57.280	        43	    1200	     6.557
  57.300	        39	    1200	     6.245
  57.320	        32	    1200	     5.657
  57.340	        51	    1200	     7.141
  57.360	        46	    1200	     6.782
  57.380	        52	    1200	     7.211
  57.400	        42	    1200	     6.481
  57.420	        62	    1200	     7.874
  57.440	        55	    1200	     7.416
  57.460	        68	    1200	     8.246
  57.480	        87	    1200	     9.327
  57.500	        62	    1200	     7.874
  57.520	        85	    1200	     9.220
  57.540	        67	    1200	     8.185
  57.560	       118	    1200	    10.863
  57.580	        99	    1200	     9.950
  57.600	       105	    1200	    10.247
  57.620	       112	    1200	    10.583
  57.640	       110	    1200	    10.488
  57.660	       141	    1200	    11.874
  57.680	       140	    1200	    11.832
  57.700	       141	    1200	    11.874
  57.720	       152	    1200	    12.329
  57.740	       150	    1200	    12.247
  57.760	       144	    1200	    12.000
  57.780	       146	    1200	    12.083
  57.800	       198	    1200	    14.071
  57.820	       179	    1200	    13.379
  57.840	       175	    1200	    13.229
  57.860	       220	    1200	    14.832
  57.880	       255	    1200	    15.969
  57.900	       266	    1200	    16.310
  57.920	       301	    1200	    17.349
  57.940	       364	    1200	    19.079
  57.960	       385	    1200	    19.621
  57.980	       434	    1200	    20.833
  58.000	       568	    1200	    23.833
  58.020	       618	    1200	    24.860
  58.040	       719	    1200	    26.814
  58.060	       788	    1200	    28.071
  58.080	       813	    1200	    28.513
  58.100	       889	    1200	    29.816
  58.120	       893	    1200	    29.883
  58.140	       924	    1200	    30.397
  58.160	       891	    1200	    29.850
  58.180	       938	    1200	    30.627
  58.200	       878	    1200	    29.631
  58.220	       797	    1200	    28.231
  58.240	       810	    1200	    28.460
  58.260	       785	    1200	    28.018
  58.280	       736	    1200	    27.129
  58.300	       700	    1200	    26.458
  58.320	       603	    1200	    24.556
  58.340	       500	    1200	    22.361
  58.360	       471	    1200	    21.703
  58.380	       412	    1200	    20.298
  58.400	       356	    1200	    18.868
  58.420	       338	    1200	    18.385
  58.440	       261	    1200	    16.155
  58.460	       222	    1200	    14.900
  58.480	       192	    1200	    13.856
  58.500	       188	    1200	    13.711
  58.520	       180	    1200	    13.416
  58.540	       138	    1200	    11.747
  58.560	       127	    1200	    11.269
  58.580	       101	    1200	    10.050
  58.600	        98	    1200	     9.899
  58.620	        83	    1200	     9.110
  58.640	        82	    1200	     9.055
  58.660	        75	    1200	     8.660
  58.680	        72	    1200	     8.485
  58.700	        70	    1200	     8.367
  58.720	        62	    1200	     7.874
  58.740	        44	    1200	     6.633
  58.760	        39	    1200	     6.245
  58.780	        45	    1200	     6.708
  58.800	        44	    1200	     6.633
  58.820	        37	    1200	     6.083
  58.840	        44	    1200	     6.633
  58.860	        36	    1200	     6.000
  58.880	        55	    1200	     7.416
  58.900	        32	    1200	     5.657
  58.920	        45	    1200	     6.708
  58.940	        31	    1200	     5.568
  58.960	        37	    1200	     6.083
  58.980	        34	    1200	     5.831
  59.000	        29	    1200	     5.385
  59.020	        27	    1200	     5.196
  59.040	        48	    1200	     6.928
  59.060	        30	    1200	     5.477
  59.080	        25	    1200	     5.000
  59.100	        42	    1200	     6.481
  59.120	        38	    1200	     6.164
  59.140	        40	    1200	     6.325
  59.160	        38	    1200	     6.164
  59.180	        27	    1200	     5.196
  59.200	        31	    1200	     5.568
  59.220	        32	    1200	     5.657
  59.240	        31	    1200	     5.568
  59.260	        36	    1200	     6.000
  59.280	        21	    1200	     4.583
  59.300	        38	    1200	     6.164
  59.320	        34	    1200	     5.831
  59.340	        32	    1200	     5.657
  59.360	        34	    1200	     5.831
  59.380	        32	    1200	     5.657
  59.400	        37	    1200	     6.083
  59.420	        23	    1200	     4.796
  59.440	        27	    1200	     5.196
  59.460	        39	    1200	     6.245
  59.480	        22	    1200	     4.690
  59.500	        28	    1200	     5.292
  59.520	        34	    1200	     5.831
  59.540	        39	    1200	     6.245
  59.560	        28	    1200	     5.292
  59.580	        39	    1200	     6.245
  59.600	        29	    1200	     5.385
  59.620	        28	    1200	     5.292
  59.640	        39	    1200	     6.245
  59.660	        27	    1200	     5.196
  59.680	        29	    1200	     5.385
  59.700	        34	    1200	     5.831
  59.720	        34	    1200	     5.831
  59.740	        35	    1200	     5.916
  59.760	        33	    1200	     5.745
  59.780	        37	    1200	     6.083
  59.800	        22	    1200	     4.690
  59.820	        30	    1200	     5.477
  59.840	        20	    1200	     4.472
  59.860	        32	    1200	     5.657
  59.880	        19	    1200	     4.359
  59.900	        25	    1200	     5.000
  59.920	        33	    1200	     5.745
  59.940	        28	    1200	     5.292
  59.960	        20	    1200	     4.472
  59.980	        22	    1200	     4.690
  60.000	        33	    1200	     5.745
  60.020	        33	    1200	     5.745
  60.040	        28	    1200	     5.292
  60.060	        23	    1200	     4.796
  60.080	        26	    1200	     5.099
  60.100	        28	    1200	     5.292
  60.120	        28	    1200	     5.292
  60.140	        29	    1200	     5.385
  60.160	        23	    1200	     4.796
  60.180	        29	    1200	     5.385
  60.200	        35	    1200	     5.916
  60.220	        20	    1200	     4.472
  60.240	        35	    1200	     5.916
  60.260	        31	    1200	     5.568
  60.280	        25	    1200	     5.000
  60.300	        28	    1200	     5.292
  60.320	        26	    1200	     5.099
  60.340	        20	    1200	     4.472
  60.360	        27	    1200	     5.196
  60.380	        31	    1200	     5.568
  60.400	        26	    1200	     5.099
  60.420	        30	    1200	     5.477
  60.440	        24	    1200	     4.899
  60.460	        33	    1200	     5.745
  60.480	        26	    1200	     5.099
  60.500	        30	    1200	     5.477
  60.520	        29	    1200	     5.385
  60.540	        31	    1200	     5.568
  60.560	        27	    1200	     5.196
  60.580	        29	    1200	     5.385
  60.600	        28	    1200	     5.292
  60.620	        28	    1200	     5.292
  60.640	        20	    1200	     4.472
  60.660	        25	    1200	     5.000
  60.680	        25	    1200	     5.000
  60.700	        27	    1200	     5.196
  60.720	        31	    1200	     5.568
  60.740	        37	    1200	     6.083
  60.760	        35	    1200	     5.916
  60.780	        19	    1200	     4.359
  60.800	        23	    1200	     4.796
  60.820	        24	    1200	     4.899
  60.840	        28	    1200	     5.292
  60.860	        39	    1200	     6.245
  60.880	        26	    1200	     5.099
  60.900	        30	    1200	     5.477
  60.920	        28	    1200	     5.292
  60.940	        24	    1200	     4.899
  60.960	        28	    1200	     5.292
  60.980	        24	    1200	     4.899
  61.000	        19	    1200	     4.359
  61.020	        32	    1200	     5.657
  61.040	        25	    1200	     5.000
  61.060	        28	    1200	     5.292
  61.080	        30	    1200	     5.477
  61.100	        20	    1200	     4.472
  61.120	        28	    1200	     5.292
  61.140	        23	    1200	     4.796
  61.160	        22	    1200	     4.690
  61.180	        30	    1200	     5.477
  61.200	        31	    1200	     5.568
  61.220	        24	    1200	     4.899
  61.240	        26	    1200	     5.099
  61.260	        32	    1200	     5.657
  61.280	        26	    1200	     5.099
  61.300	        30	    1200	     5.477
  61.320	        32	    1200	     5.657
  61.340	        29	    1200	     5.385
  61.360	        30	    1200	     5.477
  61.380	        26	    1200	     5.099
  61.400	        22	    1200	     4.690
  61.420	        35	    1200	     5.916
  61.440	        24	    1200	     4.899
  61.460	        32	    1200	     5.657
  61.480	        25	    1200	     5.000
  61.500	        30	    1200	     5.477
  61.520	        23	    1200	     4.796
  61.540	        15	    1200	     3.873
  61.560	        18	    1200	     4.243
  61.580	        23	    1200	     4.796
  61.600	        25	    1200	     5.000
  61.620	        17	    1200	     4.123
  61.640	        25	    1200	     5.000
  61.660	        19	    1200	     4.359
  61.680	        32	    1200	     5.657
  61.700	        27	    1200	     5.196
  61.720	        27	    1200	     5.196
  61.740	        22	    1200	     4.690
  61.760	        22	    1200	     4.690
  61.780	        27	    1200	     5.196
  61.800	        24	    1200	     4.899
  61.820	        17	    1200	     4.123
  61.840	        20	    1200	     4.472
  61.860	        23	    1200	     4.796
  61.880	        25	    1200	     5.000
  61.900	        18	    1200	     4.243
  61.920	        21	    1200	     4.583
  61.940	        19	    1200	     4.359
  61.960	        26	    1200	     5.099
  61.980	        26	    1200	     5.099
  62.000	        22	    1200	     4.690
  62.020	        27	    1200	     5.196
  62.040	        23	    1200	     4.796
  62.060	        21	    1200	     4.583
  62.080	        23	    1200	     4.796
  62.100	        32	    1200	     5.657
  62.120	        31	    1200	     5.568
  62.140	        21	    1200	     4.583
  62.160	        25	    1200	     5.000
  62.180	        30	    1200	     5.477
  62.200	        23	    1200	     4.796
  62.220	        21	    1200	     4.583
  62.240	        31	    1200	     5.568
  62.260	        27	    1200	     5.196
  62.280	        29	    1200	     5.385
  62.300	        28	    1200	     5.292
  62.320	        22	    1200	     4.690
  62.340	        23	    1200	     4.796
  62.360	        25	    1200	     5.000
  62.380	        22	    1200	     4.690
  62.400	        27	    1200	     5.196
  62.420	        20	    1200	     4.472
  62.440	        18	    1200	     4.243
  62.460	        27	    1200	     5.196
  62.480	        19	    1200	     4.359
  62.500	        20	    1200	     4.472
  62.520	        24	    1200	     4.899
  62.540	        32	    1200	     5.657
  62.560	        28	    1200	     5.292
  62.580	        33	    1200	     5.745
  62.600	        24	    1200	     4.899
  62.620	        39	    1200	     6.245
  62.640	        22	    1200	     4.690
  62.660	        24	    1200	     4.899
  62.680	        32	    1200	     5.657
  62.700	        26	    1200	     5.099
  62.720	        33	    1200	     5.745
  62.740	        22	    1200	     4.690
  62.760	        23	    1200	     4.796
  62.780	        25	    1200	     5.000
  62.800	        22	    1200	     4.690
  62.820	        32	    1200	     5.657
  62.840	        26	    1200	     5.099
  62.860	        19	    1200	     4.359
  62.880	        26	    1200	     5.099
  62.900	        18	    1200	     4.243
  62.920	        28	    1200	     5.292
  62.940	        25	    1200	     5.000
  62.960	        23	    1200	     4.796
  62.980	        26	    1200	     5.099
  63.000	        32	    1200	     5.657
  63.020	        25	    1200	     5.000
  63.040	        23	    1200	     4.796
  63.060	        20	    1200	     4.472
  63.080	        30	    1200	     5.477
  63.100	        19	    1200	     4.359
  63.120	        22	    1200	     4.690
  63.140	        38	    1200	     6.164
  63.160	        22	    1200	     4.690
  63.180	        21	    1200	     4.583
  63.200	        28	    1200	     5.292
  63.220	        21	    1200	     4.583
  63.240	        20	    1200	     4.472
  63.260	        31	    1200	     5.568
  63.280	        32	    1200	     5.657
  63.300	        22	    1200	     4.690
  63.320	        23	    1200	     4.796
  63.340	        29	    1200	     5.385
  63.360	        22	    1200	     4.690
  63.380	        33	    1200	     5.745
  63.400	        25	    1200	     5.000
  63.420	        23	    1200	     4.796
  63.440	        27	    1200	     5.196
  63.460	        28	    1200	     5.292
  63.480	        30	    1200	     5.477
  63.500	        16	    1200	     4.000
  63.520	        25	    1200	     5.000
  63.540	        14	    1200	     3.742
  63.560	        25	    1200	     5.000
  63.580	        16	    1200	     4.000
  63.600	        22	    1200	     4.690
  63.620	        23	    1200	     4.796
  63.640	        22	    1200	     4.690
  63.660	        18	    1200	     4.243
  63.680	        27	    1200	     5.196
  63.700	        20	    1200	     4.472
  63.720	        18	    1200	     4.243
  63.740	        20	    1200	     4.472
  63.760	        37	    1200	     6.083
  63.780	        40	    1200	     6.325
  63.800	        17	    1200	     4.123
  63.820	        17	    1200	     4.123
  63.840	        25	    1200	     5.000
  63.860	        23	    1200	     4.796
  63.880	        27	    1200	     5.196
  63.900	        31	    1200	     5.568
  63.920	        25	    1200	     5.000
  63.940	        30	    1200	     5.477
  63.960	        23	    1200	     4.796
  63.980	        25	    1200	     5.000
  64.000	        29	    1200	     5.385
  64.020	        18	    1200	     4.243
  64.040	        20	    1200	     4.472
  64.060	        23	    1200	     4.796
  64.080	        29	    1200	     5.385
  64.100	        28	    1200	     5.292
  64.120	        32	    1200	     5.657
  64.140	        23	    1200	     4.796
  64.160	        29	    1200	     5.385
  64.180	        24	    1200	     4.899
  64.200	        24	    1200	     4.899
  64.220	        26	    1200	     5.099
  64.240	        30	    1200	     5.477
  64.260	        17	    1200	     4.123
  64.280	        30	    1200	     5.477
  64.300	        23	    1200	     4.796
  64.320	        29	    1200	     5.385
  64.340	        23	    1200	     4.796
  64.360	        35	    1200	     5.916
  64.380	        37	    1200	     6.083
  64.400	        17	    1200	     4.123
  64.420	        27	    1200	     5.196
  64.440	        23	    1200	     4.796
  64.460	        29	    1200	     5.385
  64.480	        30	    1200	     5.477
  64.500	        26	    1200	     5.099
  64.520	        28	    1200	     5.292
  64.540	        26	    1200	     5.099
  64.560	        29	    1200	     5.385
  64.580	        21	    1200	     4.583
  64.600	        34	    1200	     5.831
  64.620	        30	    1200	     5.477
  64.640	        28	    1200	     5.292
  64.660	        26	    1200	     5.099
  64.680	        31	    1200	     5.568
  64.700	        21	    1200	     4.583
  64.720	        32	    1200	     5.657
  64.740	        28	    1200	     5.292
  64.760	        19	    1200	     4.359
  64.780	        30	    1200	     5.477
  64.800	        30	    1200	     5.477
  64.820	        23	    1200	     4.796
  64.840	        19	    1200	     4.359
  64.860	        24	    1200	     4.899
  64.880	        26	    1200	     5.099
  64.900	        30	    1200	     5.477
  64.920	        26	    1200	     5.099
  64.940	        28	    1200	     5.292
  64.960	        25	    1200	     5.000
  64.980	        30	    1200	     5.477
  65.000	        20	    1200	     4.472
  65.020	        35	    1200	     5.916
  65.040	        26	    1200	     5.099
  65.060	        26	    1200	     5.099
  65.080	        27	    1200	     5.196
  65.100	        25	    1200	     5.000
  65.120	        36	    1200	     6.000
  65.140	        22	    1200	     4.690
  65.160	        23	    1200	     4.796
  65.180	        26	    1200	     5.099
  65.200	        33	    1200	     5.745
  65.220	        30	    1200	     5.477
  65.240	        35	    1200	     5.916
  65.260	        31	    1200	     5.568
  65.280	        29	    1200	     5.385
  65.300	        33	    1200	     5.745
  65.320	        23	    1200	     4.796
  65.340	        18	    1200	     4.243
  65.360	        23	    1200	     4.796
  65.380	        31	    1200	     5.568
  65.400	        29	    1200	     5.385
  65.420	        34	    1200	     5.831
  65.440	        20	    1200	     4.472
  65.460	        33	    1200	     5.745
  65.480	        33	    1200	     5.745
  65.500	        24	    1200	     4.899
  65.520	        29	    1200	     5.385
  65.540	        31	    1200	     5.568
  65.560	        21	    1200	     4.583
  65.580	        30	    1200	     5.477
  65.600	        30	    1200	     5.477
  65.620	        32	    1200	     5.657
  65.640	        23	    1200	     4.796
  65.660	        19	    1200	     4.359
  65.680	        21	    1200	     4.583
  65.700	        26	    1200	     5.099
  65.720	        32	    1200	     5.657
  65.740	        24	    1200	     4.899
  65.760	        25	    1200	     5.000
  65.780	        30	    1200	     5.477
  65.800	        25	    1200	     5.000
  65.820	        30	    1200	     5.477
  65.840	        20	    1200	     4.472
  65.860	        22	    1200	     4.690
  65.880	        29	    1200	     5.385
  65.900	        30	    1200	     5.477
  65.920	        25	    1200	     5.000
  65.940	        28	    1200	     5.292
  65.960	        30	    1200	     5.477
  65.980	        18	    1200	     4.243
  66.000	        36	    1200	     6.000
  66.020	        26	    1200	     5.099
  66.040	        23	    1200	     4.796
  66.060	        29	    1200	     5.385
  66.080	        27	    1200	     5.196
  66.100	        24	    1200	     4.899
  66.120	        26	    1200	     5.099
  66.140	        31	    1200	     5.568
  66.160	        28	    1200	     5.292
  66.180	        29	    1200	     5.385
  66.200	        28	    1200	     5.292
  66.220	        23	    1200	     4.796
  66.240	        25	    1200	     5.000
  66.260	        31	    1200	     5.568
  66.280	        26	    1200	     5.099
  66.300	        17	    1200	     4.123
  66.320	        23	    1200	     4.796
  66.340	        21	    1200	     4.583
  66.360	        22	    1200	     4.690
  66.380	        36	    1200	     6.000
  66.400	        28	    1200	     5.292
  66.420	        25	    1200	     5.000
  66.440	        35	    1200	     5.916
  66.460	        26	    1200	     5.099
  66.480	        25	    1200	     5.000
  66.500	        28	    1200	     5.292
  66.520	        30	    1200	     5.477
  66.540	        21	    1200	     4.583
  66.560	        36	    1200	     6.000
  66.580	        21	    1200	     4.583
  66.600	        22	    1200	     4.690
  66.620	        32	    1200	     5.657
  66.640	        28	    1200	     5.292
  66.660	        32	    1200	     5.657
  66.680	        29	    1200	     5.385
  66.700	        28	    1200	     5.292
  66.720	        27	    1200	     5.196
  66.740	        20	    1200	     4.472
  66.760	        25	    1200	     5.000
  66.780	        31	    1200	     5.568
  66.800	        31	    1200	     5.568
  66.820	        21	    1200	     4.583
  66.840	        35	    1200	     5.916
  66.860	        22	    1200	     4.690
  66.880	        22	    1200	     4.690
  66.900	        28	    1200	     5.292
  66.920	        26	    1200	     5.099
  66.940	        26	    1200	     5.099
  66.960	        21	    1200	     4.583
  66.980	        33	    1200	     5.745
  67.000	        27	    1200	     5.196
  67.020	        25	    1200	     5.000
  67.040	        21	    1200	     4.583
  67.060	        23	    1200	     4.796
  67.080	        31	    1200	     5.568
  67.100	        33	    1200	     5.745
  67.120	        22	    1200	     4.690
  67.140	        26	    1200	     5.099
  67.160	        24	    1200	     4.899
  67.180	        32	    1200	     5.657
  67.200	        18	    1200	     4.243
  67.220	        33	    1200	     5.745
  67.240	        36	    1200	     6.000
  67.260	        28	    1200	     5.292
  67.280	        30	    1200	     5.477
  67.300	        35	    1200	     5.916
  67.320	        31	    1200	     5.568
  67.340	        44	    1200	     6.633
  67.360	        32	    1200	     5.657
  67.380	        33	    1200	     5.745
  67.400	        26	    1200	     5.099
  67.420	        38	    1200	     6.164
  67.440	        41	    1200	     6.403
  67.460	        47	    1200	     6.856
  67.480	        43	    1200	     6.557
  67.500	        51	    1200	     7.141
  67.520	        41	    1200	     6.403
  67.540	        61	    1200	     7.810
  67.560	        66	    1200	     8.124
  67.580	        55	    1200	     7.416
  67.600	        49	    1200	     7.000
  67.620	        58	    1200	     7.616
  67.640	        59	    1200	     7.681
  67.660	        55	    1200	     7.416
  67.680	        66	    1200	     8.124
  67.700	        69	    1200	     8.307
  67.720	        73	    1200	     8.544
  67.740	        68	    1200	     8.246
  67.760	        63	    1200	     7.937
  67.780	        85	    1200	     9.220
  67.800	        70	    1200	     8.367
  67.820	        86	    1200	     9.274
  67.840	        72	    1200	     8.485
  67.860	        83	    1200	     9.110
  67.880	        74	    1200	     8.602
  67.900	       104	    1200	    10.198
  67.920	        98	    1200	     9.899
  67.940	       122	    1200	    11.045
  67.960	       129	    1200	    11.358
  67.980	       117	    1200	    10.817
  68.000	       125	    1200	    11.180
  68.020	       147	    1200	    12.124
  68.040	       160	    1200	    12.649
  68.060	       155	    1200	    12.450
  68.080	       197	    1200	    14.036
  68.100	       219	    1200	    14.799
  68.120	       216	    1200	    14.697
  68.140	       243	    1200	    15.588
  68.160	       286	    1200	    16.912
  68.180	       329	    1200	    18.138
  68.200	       389	    1200	    19.723
  68.220	       419	    1200	    20.469
  68.240	       374	    1200	    19.339
  68.260	       408	    1200	    20.199
  68.280	       400	    1200	    20.000
  68.300	       370	    1200	    19.235
  68.320	       427	    1200	    20.664
  68.340	       394	    1200	    19.849
  68.360	       445	    1200	    21.095
  68.380	       447	    1200	    21.142
  68.400	       401	    1200	    20.025
  68.420	       389	    1200	    19.723
  68.440	       344	    1200	    18.547
  68.460	       312	    1200	    17.664
  68.480	       304	    1200	    17.436
  68.500	       341	    1200	    18.466
  68.520	       294	    1200	    17.146
  68.540	       251	    1200	    15.843
  68.560	       229	    1200	    15.133
  68.580	       233	    1200	    15.264
  68.600	       185	    1200	    13.601
  68.620	       183	    1200	    13.528
  68.640	       176	    1200	    13.266
  68.660	       115	    1200	    10.724
  68.680	       145	    1200	    12.042
  68.700	       114	    1200	    10.677
  68.720	       115	    1200	    10.724
  68.740	       107	    1200	    10.344
  68.760	        96	    1200	     9.798
  68.780	        81	    1200	     9.000
  68.800	        71	    1200	     8.426
  68.820	        79	    1200	     8.888
  68.840	        48	    1200	     6.928
  68.860	        53	    1200	     7.280
  68.880	        54	    1200	     7.348
  68.900	        34	    1200	     5.831
  68.920	        47	    1200	     6.856
  68.940	        43	    1200	     6.557
  68.960	        33	    1200	     5.745
  68.980	        38	    1200	     6.164
  69.000	        44	    1200	     6.633
  69.020	        25	    1200	     5.000
  69.040	        45	    1200	     6.708
  69.060	        37	    1200	     6.083
  69.080	        32	    1200	     5.657
  69.100	        23	    1200	     4.796
  69.120	        31	    1200	     5.568
  69.140	        42	    1200	     6.481
  69.160	        32	    1200	     5.657
  69.180	        35	    1200	     5.916
  69.200	        27	    1200	     5.196
  69.220	        29	    1200	     5.385
  69.240	        41	    1200	     6.403
  69.260	        23	    1200	     4.796
  69.280	        29	    1200	     5.385
  69.300	        23	    1200	     4.796
  69.320	        22	    1200	     4.690
  69.340	        25	    1200	     5.000
  69.360	        27	    1200	     5.196
  69.380	        20	    1200	     4.472
  69.400	        28	    1200	     5.292
  69.420	        36	    1200	     6.000
  69.440	        27	    1200	     5.196
  69.460	        27	    1200	     5.196
  69.480	        28	    1200	     5.292
  69.500	        28	    1200	     5.292
  69.520	        23	    1200	     4.796
  69.540	        26	    1200	     5.099
  69.560	        33	    1200	     5.745
  69.580	        28	    1200	     5.292
  69.600	        32	    1200	     5.657
  69.620	        32	    1200	     5.657
  69.640	        26	    1200	     5.099
  69.660	        33	    1200	     5.745
  69.680	        20	    1200	     4.472
  69.700	        29	    1200	     5.385
  69.720	        25	    1200	     5.000
  69.740	        31	    1200	     5.568
  69.760	        16	    1200	     4.000
  69.780	        23	    1200	     4.796
  69.800	        28	    1200	     5.292
  69.820	        25	    1200	     5.000
  69.840	        20	    1200	     4.472
  69.860	        29	    1200	     5.385
  69.880	        28	    1200	     5.292
  69.900	        24	    1200	     4.899
  69.920	        32	    1200	     5.657
  69.940	        18	    1200	     4.243
  69.960	        19	    1200	     4.359
  69.980	        23	    1200	     4.796
  70.000	        40	    1200	     6.325
  70.020	        20	    1200	     4.472
  70.040	        23	    1200	     4.796
  70.060	        22	    1200	     4.690
  70.080	        32	    1200	     5.657
  70.100	        23	    1200	     4.796
  70.120	        27	    1200	     5.196
  70.140	        27	    1200	     5.196
  70.160	        20	    1200	     4.472
  70.180	        28	    1200	     5.292
  70.200	        25	    1200	     5.000
  70.220	        21	    1200	     4.583
  70.240	        25	    1200	     5.000
  70.260	        28	    1200	     5.292
  70.280	        24	    1200	     4.899
  70.300	        29	    1200	     5.385
  70.320	        22	    1200	     4.690
  70.340	        31	    1200	     5.568
  70.360	        27	    1200	     5.196
  70.380	        28	    1200	     5.292
  70.400	        22	    1200	     4.690
  70.420	        23	    1200	     4.796
  70.440	        15	    1200	     3.873
  70.460	        25	    1200	     5.000
  70.480	        31	    1200	     5.568
  70.500	        18	    1200	     4.243
  70.520	        22	    1200	     4.690
  70.540	        26	    1200	     5.099
  70.560	        22	    1200	     4.690
  70.580	        17	    1200	     4.123
  70.600	        32	    1200	     5.657
  70.620	        25	    1200	     5.000
  70.640	        24	    1200	     4.899
  70.660	        29	    1200	     5.385
  70.680	        18	    1200	     4.243
  70.700	        26	    1200	     5.099
  70.720	        24	    1200	     4.899
  70.740	        24	    1200	     4.899
  70.760	        20	    1200	     4.472
  70.780	        20	    1200	     4.472
  70.800	        26	    1200	     5.099
  70.820	        25	    1200	     5.000
  70.840	        25	    1200	     5.000
  70.860	        16	    1200	     4.000
  70.880	        25	    1200	     5.000
  70.900	        22	    1200	     4.690
  70.920	        25	    1200	     5.000
  70.940	        20	    1200	     4.472
  70.960	        22	    1200	     4.690
  70.980	        28	    1200	     5.292
  71.000	        32	    1200	     5.657
  71.020	        23	    1200	     4.796
  71.040	        27	    1200	     5.196
  71.060	        18	    1200	     4.243
  71.080	        31	    1200	     5.568
  71.100	        30	    1200	     5.477
  71.120	        30	    1200	     5.477
  71.140	        27	    1200	     5.196
  71.160	        19	    1200	     4.359
  71.180	        25	    1200	     5.000
  71.200	        26	    1200	     5.099
  71.220	        22	    1200	     4.690
  71.240	        28	    1200	     5.292
  71.260	        19	    1200	     4.359
  71.280	        21	    1200	     4.583
  71.300	        20	    1200	     4.472
  71.320	        18	    1200	     4.243
  71.340	        27	    1200	     5.196
  71.360	        12	    1200	     3.464
  71.380	        19	    1200	     4.359
  71.400	        27	    1200	     5.196
  71.420	        33	    1200	     5.745
  71.440	        23	    1200	     4.796
  71.460	        31	    1200	     5.568
  71.480	        20	    1200	     4.472
  71.500	        18	    1200	     4.243
  71.520	        24	    1200	     4.899
  71.540	        16	    1200	     4.000
  71.560	        17	    1200	     4.123
  71.580	        18	    1200	     4.243
  71.600	        22	    1200	     4.690
  71.620	        24	    1200	     4.899
  71.640	        31	    1200	     5.568
  71.660	        27	    1200	     5.196
  71.680	        31	    1200	     5.568
  71.700	        22	    1200	     4.690
  71.720	        22	    1200	     4.690
  71.740	        28	    1200	     5.292
  71.760	        17	    1200	     4.123
  71.780	        22	    1200	     4.690
  71.800	        25	    1200	     5.000
  71.820	        13	    1200	     3.606
  71.840	        19	    1200	     4.359
  71.860	        20	    1200	     4.472
  71.880	        13	    1200	     3.606
  71.900	        16	    1200	     4.000
  71.920	        20	    1200	     4.472
  71.940	        25	    1200	     5.000
  71.960	        18	    1200	     4.243
  71.980	        21	    1200	     4.583
  72.000	        20	    1200	     4.472
  72.020	        19	    1200	     4.359
  72.040	        25	    1200	     5.000
  72.060	        20	    1200	     4.472
  72.080	        27	    1200	     5.196
  72.100	        15	    1200	     3.873
  72.120	        26	    1200	     5.099
  72.140	        14	    1200	     3.742
  72.160	        14	    1200	     3.742
  72.180	        27	    1200	     5.196
  72.200	        19	    1200	     4.359
  72.220	        26	    1200	     5.099
  72.240	        19	    1200	     4.359
  72.260	        24	    1200	     4.899
  72.280	        22	    1200	     4.690
  72.300	        17	    1200	     4.123
  72.320	        19	    1200	     4.359
  72.340	        33	    1200	     5.745
  72.360	        24	    1200	     4.899
  72.380	        29	    1200	     5.385
  72.400	        26	    1200	     5.099
  72.420	        27	    1200	     5.196
  72.440	        19	    1200	     4.359
  72.460	        28	    1200	     5.292
  72.480	        30	    1200	     5.477
  72.500	        24	    1200	     4.899
  72.520	        24	    1200	     4.899
  72.540	        24	    1200	     4.899
  72.560	        31	    1200	     5.568
  72.580	        33	    1200	     5.745
  72.600	        27	    1200	     5.196
  72.620	        31	    1200	     5.568
  72.640	        29	    1200	     5.385
  72.660	        24	    1200	     4.899
  72.680	        24	    1200	     4.899
  72.700	        22	    1200	     4.690
  72.720	        32	    1200	     5.657
  72.740	        19	    1200	     4.359
  72.760	        24	    1200	     4.899
  72.780	        23	    1200	     4.796
  72.800	        17	    1200	     4.123
  72.820	        19	    1200	     4.359
  72.840	        29	    1200	     5.385
  72.860	        25	    1200	     5.000
  72.880	        43	    1200	     6.557
  72.900	        32	    1200	     5.657
  72.920	        33	    1200	     5.745
  72.940	        28	    1200	     5.292
  72.960	        34	    1200	     5.831
  72.980	        33	    1200	     5.745
  73.000	        37	    1200	     6.083
  73.020	        32	    1200	     5.657
  73.040	        29	    1200	     5.385
  73.060	        40	    1200	     6.325
  73.080	        47	    1200	     6.856
  73.100	        42	    1200	     6.481
  73.120	        38	    1200	     6.164
  73.140	        47	    1200	     6.856
  73.160	        39	    1200	     6.245
  73.180	        33	    1200	     5.745
  73.200	        35	    1200	     5.916
  73.220	        32	    1200	     5.657
  73.240	        35	    1200	     5.916
  73.260	        35	    1200	     5.916
  73.280	        35	    1200	     5.916
  73.300	        44	    1200	     6.633
  73.320	        25	    1200	     5.000
  73.340	        35	    1200	     5.916
  73.360	        27	    1200	     5.196
  73.380	        37	    1200	     6.083
  73.400	        21	    1200	     4.583
  73.420	        37	    1200	     6.083
  73.440	        27	    1200	     5.196
  73.460	        21	    1200	     4.583
  73.480	        33	    1200	     5.745
  73.500	        32	    1200	     5.657
  73.520	        29	    1200	     5.385
  73.540	        33	    1200	     5.745
  73.560	        34	    1200	     5.831
  73.580	        31	    1200	     5.568
  73.600	        25	    1200	     5.000
  73.620	        29	    1200	     5.385
  73.640	        32	    1200	     5.657
  73.660	        21	    1200	     4.583
  73.680	        32	    1200	     5.657
  73.700	        24	    1200	     4.899
  73.720	        20	    1200	     4.472
  73.740	        24	    1200	     4.899
  73.760	        25	    1200	     5.000
  73.780	        27	    1200	     5.196
  73.800	        25	    1200	     5.000
  73.820	        21	    1200	     4.583
  73.840	        27	    1200	     5.196
  73.860	        20	    1200	     4.472
  73.880	        19	    1200	     4.359
  73.900	        23	    1200	     4.796
  73.920	        32	    1200	     5.657
  73.940	        18	    1200	     4.243
  73.960	        23	    1200	     4.796
  73.980	        20	    1200	     4.472
  74.000	        22	    1200	     4.690
  74.020	        25	    1200	     5.000
  74.040	        33	    1200	     5.745
  74.060	        22	    1200	     4.690
  74.080	        25	    1200	     5.000
  74.100	        21	    1200	     4.583
  74.120	        23	    1200	     4.796
  74.140	        24	    1200	     4.899
  74.160	        20	    1200	     4.472
  74.180	        24	    1200	     4.899
  74.200	        24	    1200	     4.899
  74.220	        22	    1200	     4.690
  74.240	        24	    1200	     4.899
  74.260	        21	    1200	     4.583
  74.280	        29	    1200	     5.385
  74.300	        21	    1200	     4.583
  74.320	        16	    1200	     4.000
  74.340	        26	    1200	     5.099
  74.360	        18	    1200	     4.243
  74.380	        21	    1200	     4.583
  74.400	        19	    1200	     4.359
  74.420	        21	    1200	     4.583
  74.440	        10	    1200	     3.162
  74.460	        26	    1200	     5.099
  74.480	        19	    1200	     4.359
  74.500	        28	    1200	     5.292
  74.520	        18	    1200	     4.243
  74.540	        21	    1200	     4.583
  74.560	        16	    1200	     4.000
  74.580	        24	    1200	     4.899
  74.600	        28	    1200	     5.292
  74.620	        24	    1200	     4.899
  74.640	        20	    1200	     4.472
  74.660	        28	    1200	     5.292
  74.680	        27	    1200	     5.196
  74.700	        20	    1200	     4.472
  74.720	        28	    1200	     5.292
  74.740	        18	    1200	     4.243
  74.760	        24	    1200	     4.899
  74.780	        21	    1200	     4.583
  74.800	        27	    1200	     5.196
  74.820	        22	    1200	     4.690
  74.840	        20	    1200	     4.472
  74.860	        17	    1200	     4.123
  74.880	        28	    1200	     5.292
  74.900	        17	    1200	     4.123
  74.920	        20	    1200	     4.472
  74.940	        26	    1200	     5.099
  74.960	        18	    1200	     4.243
  74.980	        26	    1200	     5.099
  75.000	        25	    1200	     5.000
  75.020	        26	    1200	     5.099
  75.040	        31	    1200	     5.568
  75.060	        27	    1200	     5.196
  75.080	        22	    1200	     4.690
  75.100	        34	    1200	     5.831
  75.120	        25	    1200	     5.000
  75.140	        23	    1200	     4.796
  75.160	        21	    1200	     4.583
  75.180	        24	    1200	     4.899
  75.200	        21	    1200	     4.583
  75.220	        21	    1200	     4.583
  75.240	        24	    1200	     4.899
  75.260	        24	    1200	     4.899
  75.280	        29	    1200	     5.385
  75.300	        27	    1200	     5.196
  75.320	        29	    1200	     5.385
  75.340	        22	    1200	     4.690
  75.360	        29	    1200	     5.385
  75.380	        15	    1200	     3.873
  75.400	        16	    1200	     4.000
  75.420	        23	    1200	     4.796
  75.440	        20	    1200	     4.472
  75.460	        28	    1200	     5.292
  75.480	        21	    1200	     4.583
  75.500	        18	    1200	     4.243
  75.520	        30	    1200	     5.477
  75.540	        20	    1200	     4.472
  75.560	        26	    1200	     5.099
  75.580	        26	    1200	     5.099
  75.600	        21	    1200	     4.583
  75.620	        25	    1200	     5.000
  75.640	        23	    1200	     4.796
  75.660	        25	    1200	     5.000
  75.680	        18	    1200	     4.243
  75.700	        19	    1200	     4.359
  75.720	        25	    1200	     5.000
  75.740	        24	    1200	     4.899
  75.760	        33	    1200	     5.745
  75.780	        22	    1200	     4.690
  75.800	        35	    1200	     5.916
  75.820	        25	    1200	     5.000
  75.840	        21	    1200	     4.583
  75.860	        18	    1200	     4.243
  75.880	        20	    1200	     4.472
  75.900	        27	    1200	     5.196
  75.920	        21	    1200	     4.583
  75.940	        27	    1200	     5.196
  75.960	        20	    1200	     4.472
  75.980	        21	    1200	     4.583
  76.000	        34	    1200	     5.831
  76.020	        27	    1200	     5.196
  76.040	        23	    1200	     4.796
  76.060	        20	    1200	     4.472
  76.080	        15	    1200	     3.873
  76.100	        24	    1200	     4.899
  76.120	        22	    1200	     4.690
  76.140	        20	    1200	     4.472
  76.160	        27	    1200	     5.196
  76.180	        20	    1200	     4.472
  76.200	        24	    1200	     4.899
  76.220	        26	    1200	     5.099
  76.240	        20	    1200	     4.472
  76.260	        23	    1200	     4.796
  76.280	        29	    1200	     5.385
  76.300	        26	    1200	     5.099
  76.320	        27	    1200	     5.196
  76.340	        21	    1200	     4.583
  76.360	        29	    1200	     5.385
  76.380	        32	    1200	     5.657
  76.400	        26	    1200	     5.099
  76.420	        19	    1200	     4.359
  76.440	        28	    1200	     5.292
  76.460	        26	    1200	     5.099
  76.480	        27	    1200	     5.196
  76.500	        21	    1200	     4.583
  76.520	        25	    1200	     5.000
  76.540	        19	    1200	     4.359
  76.560	        27	    1200	     5.196
  76.580	        32	    1200	     5.657
  76.600	        27	    1200	     5.196
  76.620	        28	    1200	     5.292
  76.640	        31	    1200	     5.568
  76.660	        29	    1200	     5.385
  76.680	        31	    1200	     5.568
  76.700	        34	    1200	     5.831
  76.720	        35	    1200	     5.916
  76.740	        32	    1200	     5.657
  76.760	        29	    1200	     5.385
  76.780	        35	    1200	     5.916
  76.800	        36	    1200	     6.000
  76.820	        26	    1200	     5.099
  76.840	        30	    1200	     5.477
  76.860	        28	    1200	     5.292
  76.880	        35	    1200	     5.916
  76.900	        48	    1200	     6.928
  76.920	        40	    1200	     6.325
  76.940	        35	    1200	     5.916
  76.960	        48	    1200	     6.928
  76.980	        45	    1200	     6.708
  77.000	        50	    1200	     7.071
  77.020	        41	    1200	     6.403
  77.040	        45	    1200	     6.708
  77.060	        47	    1200	     6.856
  77.080	        63	    1200	     7.937
  77.100	        51	    1200	     7.141
  77.120	        50	    1200	     7.071
  77.140	        57	    1200	     7.550
  77.160	        54	    1200	     7.348
  77.180	        52	    1200	     7.211
  77.200	        47	    1200	     6.856
  77.220	        61	    1200	     7.810
  77.240	        62	    1200	     7.874
  77.260	        66	    1200	     8.124
  77.280	        54	    1200	     7.348
  77.300	        65	    1200	     8.062
  77.320	        67	    1200	     8.185
  77.340	        66	    1200	     8.124
  77.360	        63	    1200	     7.937
  77.380	        80	    1200	     8.944
  77.400	        85	    1200	     9.220
  77.420	        92	    1200	     9.592
  77.440	       100	    1200	    10.000
  77.460	        78	    1200	     8.832
  77.480	       110	    1200	    10.488
  77.500	       126	    1200	    11.225
  77.520	       112	    1200	    10.583
  77.540	       135	    1200	    11.619
  77.560	       157	    1200	    12.530
  77.580	       157	    1200	    12.530
  77.600	       173	    1200	    13.153
  77.620	       211	    1200	    14.526
  77.640	       189	    1200	    13.748
  77.660	       211	    1200	    14.526
  77.680	       240	    1200	    15.492
  77.700	       248	    1200	    15.748
  77.720	       264	    1200	    16.248
  77.740	       280	    1200	    16.733
  77.760	       270	    1200	    16.432
  77.780	       275	    1200	    16.583
  77.800	       285	    1200	    16.882
  77.820	       281	    1200	    16.763
  77.840	       257	    1200	    16.031
  77.860	       264	    1200	    16.248
  77.880	       247	    1200	    15.716
  77.900	       250	    1200	    15.811
  77.920	       227	    1200	    15.067
  77.940	       240	    1200	    15.492
  77.960	       234	    1200	    15.297
  77.980	       228	    1200	    15.100
  78.000	       196	    1200	    14.000
  78.020	       226	    1200	    15.033
  78.040	       179	    1200	    13.379
  78.060	       175	    1200	    13.229
  78.080	       161	    1200	    12.689
  78.100	       146	    1200	    12.083
  78.120	       127	    1200	    11.269
  78.140	       136	    1200	    11.662
  78.160	       125	    1200	    11.180
  78.180	       135	    1200	    11.619
  78.200	       108	    1200	    10.392
  78.220	        84	    1200	     9.165
  78.240	        82	    1200	     9.055
  78.260	        98	    1200	     9.899
  78.280	        73	    1200	     8.544
  78.300	        92	    1200	     9.592
  78.320	        57	    1200	     7.550
  78.340	        65	    1200	     8.062
  78.360	        53	    1200	     7.280
  78.380	        55	    1200	     7.416
  78.400	        51	    1200	     7.141
  78.420	        48	    1200	     6.928
  78.440	        52	    1200	     7.211
  78.460	        35	    1200	     5.916
  78.480	        45	    1200	     6.708
  78.500	        37	    1200	     6.083
  78.520	        41	    1200	     6.403
  78.540	        43	    1200	     6.557
  78.560	        39	    1200	     6.245
  78.580	        42	    1200	     6.481
  78.600	        35	    1200	     5.916
  78.620	        40	    1200	     6.325
  78.640	        26	    1200	     5.099
  78.660	        34	    1200	     5.831
  78.680	        35	    1200	     5.916
  78.700	        36	    1200	     6.000
  78.720	        31	    1200	     5.568
  78.740	        29	    1200	     5.385
  78.760	        26	    1200	     5.099
  78.780	        31	    1200	     5.568
  78.800	        32	    1200	     5.657
  78.820	        25	    1200	     5.000
  78.840	        22	    1200	     4.690
  78.860	        24	    1200	     4.899
  78.880	        35	    1200	     5.916
  78.900	        37	    1200	     6.083
  78.920	        30	    1200	     5.477
  78.940	        25	    1200	     5.000
  78.960	        28	    1200	     5.292
  78.980	        25	    1200	     5.000
  79.000	        21	    1200	     4.583
  79.020	        24	    1200	     4.899
  79.040	        26	    1200	     5.099
  79.060	        23	    1200	     4.796
  79.080	        23	    1200	     4.796
  79.100	        29	    1200	     5.385
  79.120	        22	    1200	     4.690
  79.140	        24	    1200	     4.899
  79.160	        32	    1200	     5.657
  79.180	        18	    1200	     4.243
  79.200	        20	    1200	     4.472
  79.220	        29	    1200	     5.385
  79.240	        26	    1200	     5.099
  79.260	        19	    1200	     4.359
  79.280	        27	    1200	     5.196
  79.300	        27	    1200	     5.196
  79.320	        31	    1200	     5.568
  79.340	        24	    1200	     4.899
  79.360	        20	    1200	     4.472
  79.380	        22	    1200	     4.690
  79.400	        26	    1200	     5.099
  79.420	        26	    1200	     5.099
  79.440	        29	    1200	     5.385
  79.460	        25	    1200	     5.000
  79.480	        21	    1200	     4.583
  79.500	        25	    1200	     5.000
  79.520	        33	    1200	     5.745
  79.540	        23	    1200	     4.796
  79.560	        29	    1200	     5.385
  79.580	        33	    1200	     5.745
  79.600	        26	    1200	     5.099
  79.620	        27	    1200	     5.196
  79.640	        38	    1200	     6.164
  79.660	        24	    1200	     4.899
  79.680	        27	    1200	     5.196
  79.700	        24	    1200	     4.899
  79.720	        28	    1200	     5.292
  79.740	        17	    1200	     4.123
  79.760	        18	    1200	     4.243
  79.780	        17	    1200	     4.123
  79.800	        25	    1200	     5.000
  79.820	        27	    1200	     5.196
  79.840	        25	    1200	     5.000
  79.860	        29	    1200	     5.385
  79.880	        24	    1200	     4.899
  79.900	        18	    1200	     4.243
  79.920	        31	    1200	     5.568
  79.940	        23	    1200	     4.796
  79.960	        23	    1200	     4.796
  79.980	        26	    1200	     5.099
  80.000	        20	    1200	     4.472
  80.020	        17	    1200	     4.123
  80.040	        26	    1200	     5.099
  80.060	        23	    1200	     4.796
  80.080	        30	    1200	     5.477
  80.100	        19	    1200	     4.359
  80.120	        33	    1200	     5.745
  80.140	        21	    1200	     4.583
  80.160	        17	    1200	     4.123
  80.180	        26	    1200	     5.099
  80.200	        22	    1200	     4.690
  80.220	        25	    1200	     5.000
  80.240	        17	    1200	     4.123
  80.260	        26	    1200	     5.099
  80.280	        30	    1200	     5.477
  80.300	        18	    1200	     4.243
  80.320	        15	    1200	     3.873
  80.340	        21	    1200	     4.583
  80.360	        22	    1200	     4.690
  80.380	        11	    1200	     3.317
  80.400	        20	    1200	     4.472
  80.420	        22	    1200	     4.690
  80.440	        19	    1200	     4.359
  80.460	        23	    1200	     4.796
  80.480	        24	    1200	     4.899
  80.500	        27	    1200	     5.196
  80.520	        23	    1200	     4.796
  80.540	        23	    1200	     4.796
  80.560	        22	    1200	     4.690
  80.580	        22	    1200	     4.690
  80.600	        20	    1200	     4.472
  80.620	        26	    1200	     5.099
  80.640	        14	    1200	     3.742
  80.660	        14	    1200	     3.742
  80.680	        22	    1200	     4.690
  80.700	        26	    1200	     5.099
  80.720	        18	    1200	     4.243
  80.740	        15	    1200	     3.873
  80.760	        25	    1200	     5.000
  80.780	        20	    1200	     4.472
  80.800	        20	    1200	     4.472
  80.820	        26	    1200	     5.099
  80.840	        21	    1200	     4.583
  80.860	        27	    1200	     5.196
  80.880	        17	    1200	     4.123
  80.900	        25	    1200	     5.000
  80.920	        21	    1200	     4.583
  80.940	        25	    1200	     5.000
  80.960	        21	    1200	     4.583
  80.980	        21	    1200	     4.583
  81.000	        23	    1200	     4.796
  81.020	        14	    1200	     3.742
  81.040	        16	    1200	     4.000
  81.060	        19	    1200	     4.359
  81.080	        26	    1200	     5.099
  81.100	        18	    1200	     4.243
  81.120	        23	    1200	     4.796
  81.140	        22	    1200	     4.690
  81.160	        22	    1200	     4.690
  81.180	        28	    1200	     5.292
  81.200	        40	    1200	     6.325
  81.220	        16	    1200	     4.000
  81.240	        25	    1200	     5.000
  81.260	        26	    1200	     5.099
  81.280	        22	    1200	     4.690
  81.300	        21	    1200	     4.583
  81.320	        37	    1200	     6.083
  81.340	        26	    1200	     5.099
  81.360	        29	    1200	     5.385
  81.380	        20	    1200	     4.472
  81.400	        29	    1200	     5.385
  81.420	        28	    1200	     5.292
  81.440	        23	    1200	     4.796
  81.460	        24	    1200	     4.899
  81.480	        26	    1200	     5.099
  81.500	        25	    1200	     5.000
  81.520	        24	    1200	     4.899
  81.540	        25	    1200	     5.000
  81.560	        20	    1200	     4.472
  81.580	        37	    1200	     6.083
  81.600	        34	    1200	     5.831
  81.620	        18	    1200	     4.243
  81.640	        27	    1200	     5.196
  81.660	        21	    1200	     4.583
  81.680	        25	    1200	     5.000
  81.700	        19	    1200	     4.359
  81.720	        31	    1200	     5.568
  81.740	        23	    1200	     4.796
  81.760	        31	    1200	     5.568
  81.780	        34	    1200	     5.831
  81.800	        28	    1200	     5.292
  81.820	        32	    1200	     5.657
  81.840	        35	    1200	     5.916
  81.860	        39	    1200	     6.245
  81.880	        29	    1200	     5.385
  81.900	        27	    1200	     5.196
  81.920	        25	    1200	     5.000
  81.940	        29	    1200	     5.385
  81.960	        28	    1200	     5.292
  81.980	        33	    1200	     5.745
  82.000	        46	    1200	     6.782
  82.020	        30	    1200	     5.477
  82.040	        52	    1200	     7.211
  82.060	        35	    1200	     5.916
  82.080	        41	    1200	     6.403
  82.100	        35	    1200	     5.916
  82.120	        54	    1200	     7.348
  82.140	        38	    1200	     6.164
  82.160	        55	    1200	     7.416
  82.180	        55	    1200	     7.416
  82.200	        43	    1200	     6.557
  82.220	        74	    1200	     8.602
  82.240	        45	    1200	     6.708
  82.260	        63	    1200	     7.937
  82.280	        59	    1200	     7.681
  82.300	        64	    1200	     8.000
  82.320	        74	    1200	     8.602
  82.340	        57	    1200	     7.550
  82.360	        81	    1200	     9.000
  82.380	        71	    1200	     8.426
  82.400	        64	    1200	     8.000
  82.420	        75	    1200	     8.660
  82.440	        84	    1200	     9.165
  82.460	        66	    1200	     8.124
  82.480	        65	    1200	     8.062
  82.500	        61	    1200	     7.810
  82.520	        69	    1200	     8.307
  82.540	        63	    1200	     7.937
  82.560	        67	    1200	     8.185
  82.580	        57	    1200	     7.550
  82.600	        51	    1200	     7.141
  82.620	        70	    1200	     8.367
  82.640	        64	    1200	     8.000
  82.660	        54	    1200	     7.348
  82.680	        58	    1200	     7.616
  82.700	        56	    1200	     7.483
  82.720	        56	    1200	     7.483
  82.740	        49	    1200	     7.000
  82.760	        46	    1200	     6.782
  82.780	        32	    1200	     5.657
  82.800	        43	    1200	     6.557
  82.820	        38	    1200	     6.164
  82.840	        37	    1200	     6.083
  82.860	        32	    1200	     5.657
  82.880	        35	    1200	     5.916
  82.900	        31	    1200	     5.568
  82.920	        27	    1200	     5.196
  82.940	        25	    1200	     5.000
  82.960	        36	    1200	     6.000
  82.980	        44	    1200	     6.633
  83.000	        25	    1200	     5.000
  83.020	        33	    1200	     5.745
  83.040	        24	    1200	     4.899
  83.060	        32	    1200	     5.657
  83.080	        33	    1200	     5.745
  83.100	        29	    1200	     5.385
  83.120	        17	    1200	     4.123
  83.140	        24	    1200	     4.899
  83.160	        30	    1200	     5.477
  83.180	        20	    1200	     4.472
  83.200	        33	    1200	     5.745
  83.220	        27	    1200	     5.196
  83.240	        33	    1200	     5.745
  83.260	        21	    1200	     4.583
  83.280	        26	    1200	     5.099
  83.300	        23	    1200	     4.796
  83.320	        23	    1200	     4.796
  83.340	        18	    1200	     4.243
  83.360	        20	    1200	     4.472
  83.380	        27	    1200	     5.196
  83.400	        18	    1200	     4.243
  83.420	        21	    1200	     4.583
  83.440	        20	    1200	     4.472
  83.460	        23	    1200	     4.796
  83.480	        17	    1200	     4.123
  83.500	        22	    1200	     4.690
  83.520	        27	    1200	     5.196
  83.540	        22	    1200	     4.690
  83.560	        16	    1200	     4.000
  83.580	        26	    1200	     5.099
  83.600	        15	    1200	     3.873
  83.620	        28	    1200	     5.292
  83.640	        21	    1200	     4.583
  83.660	        22	    1200	     4.690
  83.680	        19	    1200	     4.359
  83.700	        25	    1200	     5.000
  83.720	        17	    1200	     4.123
  83.740	        21	    1200	     4.583
  83.760	        24	    1200	     4.899
  83.780	        31	    1200	     5.568
  83.800	        22	    1200	     4.690
  83.820	        20	    1200	     4.472
  83.840	        20	    1200	     4.472
  83.860	        26	    1200	     5.099
  83.880	        27	    1200	     5.196
  83.900	        24	    1200	     4.899
  83.920	        25	    1200	     5.000
  83.940	        21	    1200	     4.583
  83.960	        15	    1200	     3.873
  83.980	        17	    1200	     4.123
  84.000	        24	    1200	     4.899
  84.020	        20	    1200	     4.472
  84.040	        17	    1200	     4.123
  84.060	        22	    1200	     4.690
  84.080	        20	    1200	     4.472
  84.100	        38	    1200	     6.164
  84.120	        24	    1200	     4.899
  84.140	        17	    1200	     4.123
  84.160	        20	    1200	     4.472
  84.180	        22	    1200	     4.690
  84.200	        22	    1200	     4.690
  84.220	        24	    1200	     4.899
  84.240	        20	    1200	     4.472
  84.260	        15	    1200	     3.873
  84.280	        17	    1200	     4.123
  84.300	        21	    1200	     4.583
  84.320	        27	    1200	     5.196
  84.340	        28	    1200	     5.292
  84.360	        19	    1200	     4.359
  84.380	        30	    1200	     5.477
  84.400	        22	    1200	     4.690
  84.420	        19	    1200	     4.359
  84.440	        17	    1200	     4.123
  84.460	        21	    1200	     4.583
  84.480	        25	    1200	     5.000
  84.500	        19	    1200	     4.359
  84.520	        19	    1200	     4.359
  84.540	        23	    1200	     4.796
  84.560	        17	    1200	     4.123
  84.580	        12	    1200	     3.464
  84.600	        23	    1200	     4.796
  84.620	        17	    1200	     4.123
  84.640	        18	    1200	     4.243
  84.660	        16	    1200	     4.000
  84.680	        14	    1200	     3.742
  84.700	        20	    1200	     4.472
  84.720	        14	    1200	     3.742
  84.740	        21	    1200	     4.583
  84.760	        27	    1200	     5.196
  84.780	        28	    1200	     5.292
  84.800	        18	    1200	     4.243
  84.820	        23	    1200	     4.796
  84.840	        25	    1200	     5.000
  84.860	        23	    1200	     4.796
  84.880	        12	    1200	     3.464
  84.900	        18	    1200	     4.243
  84.920	        14	    1200	     3.742
  84.940	        27	    1200	     5.196
  84.960	        31	    1200	     5.568
  84.980	        22	    1200	     4.690
  85.000	        20	    1200	     4.472
  85.020	        22	    1200	     4.690
  85.040	        27	    1200	     5.196
  85.060	        21	    1200	     4.583
  85.080	        17	    1200	     4.123
  85.100	        13	    1200	     3.606
  85.120	        26	    1200	     5.099
  85.140	        27	    1200	     5.196
  85.160	        20	    1200	     4.472
  85.180	        16	    1200	     4.000
  85.200	        18	    1200	     4.243
  85.220	        25	    1200	     5.000
  85.240	        23	    1200	     4.796
  85.260	        20	    1200	     4.472
  85.280	        30	    1200	     5.477
  85.300	        15	    1200	     3.873
  85.320	        21	    1200	     4.583
  85.340	        22	    1200	     4.690
  85.360	        23	    1200	     4.796
  85.380	        24	    1200	     4.899
  85.400	        25	    1200	     5.000
  85.420	        21	    1200	     4.583
  85.440	        23	    1200	     4.796
  85.460	        18	    1200	     4.243
  85.480	        23	    1200	     4.796
  85.500	        13	    1200	     3.606
  85.520	        16	    1200	     4.000
  85.540	        18	    1200	     4.243
  85.560	        24	    1200	     4.899
  85.580	        15	    1200	     3.873
  85.600	        26	    1200	     5.099
  85.620	        25	    1200	     5.000
  85.640	        29	    1200	     5.385
  85.660	        13	    1200	     3.606
  85.680	        17	    1200	     4.123
  85.700	        20	    1200	     4.472
  85.720	        24	    1200	     4.899
  85.740	        23	    1200	     4.796
  85.760	        28	    1200	     5.292
  85.780	        28	    1200	     5.292
  85.800	        30	    1200	     5.477
  85.820	        19	    1200	     4.359
  85.840	        27	    1200	     5.196
  85.860	        24	    1200	     4.899
  85.880	        17	    1200	     4.123
  85.900	        22	    1200	     4.690
  85.920	        25	    1200	     5.000
  85.940	        22	    1200	     4.690
  85.960	        29	    1200	     5.385
  85.980	        29	    1200	     5.385
  86.000	        33	    1200	     5.745
  86.020	        33	    1200	     5.745
  86.040	        34	    1200	     5.831
  86.060	        22	    1200	     4.690
  86.080	        28	    1200	     5.292
  86.100	        30	    1200	     5.477
  86.120	        44	    1200	     6.633
  86.140	        31	    1200	     5.568
  86.160	        27	    1200	     5.196
  86.180	        29	    1200	     5.385
  86.200	        32	    1200	     5.657
  86.220	        34	    1200	     5.831
  86.240	        32	    1200	     5.657
  86.260	        36	    1200	     6.000
  86.280	        32	    1200	     5.657
  86.300	        36	    1200	     6.000
  86.320	        38	    1200	     6.164
  86.340	        38	    1200	     6.164
  86.360	        35	    1200	     5.916
  86.380	        38	    1200	     6.164
  86.400	        33	    1200	     5.745
  86.420	        30	    1200	     5.477
  86.440	        36	    1200	     6.000
  86.460	        44	    1200	     6.633
  86.480	        33	    1200	     5.745
  86.500	        32	    1200	     5.657
  86.520	        38	    1200	     6.164
  86.540	        35	    1200	     5.916
  86.560	        49	    1200	     7.000
  86.580	        60	    1200	     7.746
  86.600	        45	    1200	     6.708
  86.620	        51	    1200	     7.141
  86.640	        61	    1200	     7.810
  86.660	        52	    1200	     7.211
  86.680	        63	    1200	     7.937
  86.700	        58	    1200	     7.616
  86.720	        89	    1200	     9.434
  86.740	        94	    1200	     9.695
  86.760	        94	    1200	     9.695
  86.780	        81	    1200	     9.000
  86.800	        99	    1200	     9.950
  86.820	        99	    1200	     9.950
  86.840	       105	    1200	    10.247
  86.860	       117	    1200	    10.817
  86.880	       134	    1200	    11.576
  86.900	       113	    1200	    10.630
  86.920	       105	    1200	    10.247
  86.940	       106	    1200	    10.296
  86.960	       119	    1200	    10.909
  86.980	       111	    1200	    10.536
  87.000	       111	    1200	    10.536
  87.020	       116	    1200	    10.770
  87.040	       123	    1200	    11.091
  87.060	       124	    1200	    11.136
  87.080	        96	    1200	     9.798
  87.100	       117	    1200	    10.817
  87.120	       109	    1200	    10.440
  87.140	       108	    1200	    10.392
  87.160	       104	    1200	    10.198
  87.180	        89	    1200	     9.434
  87.200	        75	    1200	     8.660
  87.220	        89	    1200	     9.434
  87.240	        81	    1200	     9.000
  87.260	        79	    1200	     8.888
  87.280	        85	    1200	     9.220
  87.300	        79	    1200	     8.888
  87.320	        67	    1200	     8.185
  87.340	        64	    1200	     8.000
  87.360	        68	    1200	     8.246
  87.380	        60	    1200	     7.746
  87.400	        58	    1200	     7.616
  87.420	        54	    1200	     7.348
  87.440	        67	    1200	     8.185
  87.460	        46	    1200	     6.782
  87.480	        39	    1200	     6.245
  87.500	        51	    1200	     7.141
  87.520	        36	    1200	     6.000
  87.540	        48	    1200	     6.928
  87.560	        41	    1200	     6.403
  87.580	        33	    1200	     5.745
  87.600	        35	    1200	     5.916
  87.620	        26	    1200	     5.099
  87.640	        28	    1200	     5.292
  87.660	        27	    1200	     5.196
  87.680	        28	    1200	     5.292
  87.700	        25	    1200	     5.000
  87.720	        24	    1200	     4.899
  87.740	        22	    1200	     4.690
  87.760	        26	    1200	     5.099
  87.780	        17	    1200	     4.123
  87.800	        29	    1200	     5.385
  87.820	        15	    1200	     3.873
  87.840	        17	    1200	     4.123
  87.860	        22	    1200	     4.690
  87.880	        28	    1200	     5.292
  87.900	        27	    1200	     5.196
  87.920	        22	    1200	     4.690
  87.940	        30	    1200	     5.477
  87.960	        15	    1200	     3.873
  87.980	        15	    1200	     3.873
  88.000	        24	    1200	     4.899
  88.020	        23	    1200	     4.796
  88.040	        27	    1200	     5.196
  88.060	        25	    1200	     5.000
  88.080	        27	    1200	     5.196
  88.100	        24	    1200	     4.899
  88.120	        18	    1200	     4.243
  88.140	        28	    1200	     5.292
  88.160	        14	    1200	     3.742
  88.180	        30	    1200	     5.477
  88.200	        32	    1200	     5.657
  88.220	        24	    1200	     4.899
  88.240	        25	    1200	     5.000
  88.260	        26	    1200	     5.099
  88.280	        17	    1200	     4.123
  88.300	        22	    1200	     4.690
  88.320	        22	    1200	     4.690
  88.340	        26	    1200	     5.099
  88.360	        20	    1200	     4.472
  88.380	        18	    1200	     4.243
  88.400	        20	    1200	     4.472
  88.420	        22	    1200	     4.690
  88.440	        23	    1200	     4.796
  88.460	        23	    1200	     4.796
  88.480	        15	    1200	     3.873
  88.500	        19	    1200	     4.359
  88.520	        15	    1200	     3.873
  88.540	        23	    1200	     4.796
  88.560	        26	    1200	     5.099
  88.580	        28	    1200	     5.292
  88.600	        29	    1200	     5.385
  88.620	        20	    1200	     4.472
  88.640	        33	    1200	     5.745
  88.660	        23	    1200	     4.796
  88.680	        15	    1200	     3.873
  88.700	        20	    1200	     4.472
  88.720	        22	    1200	     4.690
  88.740	        18	    1200	     4.243
  88.760	        24	    1200	     4.899
  88.780	        17	    1200	     4.123
  88.800	        23	    1200	     4.796
  88.820	        28	    1200	     5.292
  88.840	        26	    1200	     5.099
  88.860	        22	    1200	     4.690
  88.880	        14	    1200	     3.742
  88.900	        13	    1200	     3.606
  88.920	        18	    1200	     4.243
  88.940	        24	    1200	     4.899
  88.960	        21	    1200	     4.583
  88.980	        21	    1200	     4.583
  89.000	        26	    1200	     5.099
  89.020	        20	    1200	     4.472
  89.040	        21	    1200	     4.583
  89.060	        24	    1200	     4.899
  89.080	        22	    1200	     4.690
  89.100	        25	    1200	     5.000
  89.120	        24	    1200	     4.899
  89.140	        17	    1200	     4.123
  89.160	        22	    1200	     4.690
  89.180	        24	    1200	     4.899
  89.200	        28	    1200	     5.292
  89.220	        22	    1200	     4.690
  89.240	        34	    1200	     5.831
  89.260	        18	    1200	     4.243
  89.280	        25	    1200	     5.000
  89.300	        17	    1200	     4.123
  89.320	        22	    1200	     4.690
  89.340	        21	    1200	     4.583
  89.360	        20	    1200	     4.472
  89.380	        20	    1200	     4.472
  89.400	        15	    1200	     3.873
  89.420	        20	    1200	     4.472
  89.440	        19	    1200	     4.359
  89.460	        22	    1200	     4.690
  89.480	        21	    1200	     4.583
  89.500	        25	    1200	     5.000
  89.520	        15	    1200	     3.873
  89.540	        26	    1200	     5.099
  89.560	        25	    1200	     5.000
  89.580	        14	    1200	     3.742
  89.600	        17	    1200	     4.123
  89.620	        15	    1200	     3.873
  89.640	        17	    1200	     4.123
  89.660	        16	    1200	     4.000
  89.680	        29	    1200	     5.385
  89.700	        25	    1200	     5.000
  89.720	        24	    1200	     4.899
  89.740	        24	    1200	     4.899
  89.760	        23	    1200	     4.796
  89.780	        11	    1200	     3.317
  89.800	        14	    1200	     3.742
  89.820	        15	    1200	     3.873
  89.840	        16	    1200	     4.000
  89.860	        14	    1200	     3.742
  89.880	        20	    1200	     4.472
  89.900	        20	    1200	     4.472
  89.920	        18	    1200	     4.243
  89.940	        13	    1200	     3.606
  89.960	        34	    1200	     5.831
  89.980	        17	    1200	     4.123
  90.000	        23	    1200	     4.796
