*FILE_COMMENT ""
*FILE_MD5 ""
*FILE_MEMO ""
*FILE_OPERATOR "Administrator"
*FILE_PACKAGE_NAME ""
*FILE_PART_ID "GeneralMeasurement(BB)"
*FILE_SAMPLE "STF8_50H2_50H2O_72Hr_Dilute"
*FILE_SYSTEM_NAME "SmartLab"
*FILE_TYPE "RAS_RAW"
*FILE_USERGROUP "Administrators"
*FILE_VERSION "1"
*HW_ATTACHMENT_ID "ATT0033"
*HW_ATTACHMENT_NAME "ASC6_Reflection"
*HW_ATTACHMENT_NAME_INTERNAL "ASC6_Reflection"
*HW_COUNTER_ID-0 "CUT0051"
*HW_COUNTER_ID-2 "CMC0020"
*HW_COUNTER_MONOCHRO_ID "CMC0020"
*HW_COUNTER_MONOCHRO_NAME "None"
*HW_COUNTER_MONOCHRO_NAME_INTERNAL "None"
*HW_COUNTER_NAME_INTERNAL "HyPix3000(H)"
*HW_COUNTER_NAME-0 "HyPix3000(H)"
*HW_COUNTER_NAME-1 "None"
*HW_COUNTER_NAME-2 "None"
*HW_COUNTER_PIXEL_SIZE "0.1"
*HW_COUNTER_SELECT_NAME "HyPix3000(H)"
*HW_EXTERNAL_CONTROLLER_NAME "None"
*HW_EXTERNAL_CONTROLLER_NAME_INTERNAL "None"
*HW_GONIOMETER_ID "GON0022"
*HW_GONIOMETER_NAME "StandardInplane"
*HW_GONIOMETER_NAME_INTERNAL "StandardInplaneEnc"
*HW_GONIOMETER_RADIUS-0 "90.0"
*HW_GONIOMETER_RADIUS-1 "114.0"
*HW_GONIOMETER_RADIUS-2 "190.0"
*HW_GONIOMETER_RADIUS-3 "300.0"
*HW_GONIOMETER_RADIUS-4 "187.0"
*HW_GONIOMETER_RADIUS-5 "300.0"
*HW_GONIOMETER_RADIUS-6 "113.0"
*HW_GONIOMETER_RADIUS-7 "331.0"
*HW_I_CBO_ID "CBO0021"
*HW_I_CBO_NAME "CBO"
*HW_I_CBO_NAME_INTERNAL "CBO"
*HW_I_MONOCHRO_ID "ISO0021"
*HW_I_MONOCHRO_NAME "IPS_adaptor"
*HW_I_MONOCHRO_NAME_INTERNAL "IPS_adaptor"
*HW_I_OPT_ID-1 "CBO0021"
*HW_I_OPT_ID-2 "ISL0021"
*HW_I_PRIMARY_NAME_INTERNAL "Standard"
*HW_I_SLIT_ID "ISL0021"
*HW_I_SLIT_NAME "Auto"
*HW_I_SLIT_NAME_INTERNAL "Auto"
*HW_R_ATTENUATER_AUTOMODE "0"
*HW_R_ATTENUATER_ID "ATN0020"
*HW_R_ATTENUATER_NAME "No_unit"
*HW_R_ATTENUATOR_NAME_INTERNAL "No_unit"
*HW_R_OPT_ID-0 "RSS0022"
*HW_R_OPT_ID-1 "RCR0022"
*HW_R_OPT_ID-2 "RSO0021"
*HW_R_OPT_ID-3 "RRS0022"
*HW_R_OPT_ID-4 "ATN0020"
*HW_R_ROD_ID "RCR0022"
*HW_R_ROD_NAME "ROD_adaptor"
*HW_R_ROD_NAME_INTERNAL "ROD_adaptor"
*HW_R_RPS_ID "RSO0021"
*HW_R_RPS_NAME "RPS_adaptor"
*HW_R_RPS_NAME_INTERNAL "RPS_adaptor"
*HW_R_RS_ID "RRS0022"
*HW_R_RS_NAME "Virtual"
*HW_R_RS_NAME_INTERNAL "Virtual"
*HW_R_SS_ID "RSS0022"
*HW_R_SS_NAME "Auto_Zr"
*HW_R_SS_NAME_INTERNAL "Auto_Zr"
*HW_ROBOT_NAME "No_unit"
*HW_ROBOT_NAME_INTERNAL "No_unit"
*HW_SAMPLE_CAMERA_NAME "SampleCamera_Inp"
*HW_SAMPLE_CAMERA_NAME_INTERNAL "SampleCamera_Inp"
*HW_SAMPLE_HOLDER_ID "SMP0023"
*HW_SAMPLE_HOLDER_NAME "Z"
*HW_SAMPLE_HOLDER_NAME_INTERNAL "Z"
*HW_SAMPLE_NAME "ReflectionForASC"
*HW_SAMPLE_NAME_INTERNAL "ReflectionForASC"
*HW_SAMPLE_PLATE_NAME "None"
*HW_SAMPLE_PLATE_NAME_INTERNAL "None"
*HW_SAMPLE_SPACER_NAME "None"
*HW_SAMPLE_SPACER_NAME_INTERNAL "None"
*HW_USERINFO_CATALOG_NO ""
*HW_USERINFO_INSTRUMENT_ID ""
*HW_USERINFO_INSTRUMENT_NAME ""
*HW_USERINFO_INSTRUMENT_NO ""
*HW_USERINFO_MODEL ""
*HW_USERINFO_ORDER_NO ""
*HW_USERINFO_SERIAL_NO ""
*HW_USERINFO_VERIFY_INSTRUMENT_ID "00-07-fe-01-04-5e"
*HW_VER_RCD_COUNTER_UNIT "1.0.1"
*HW_VER_RCD_CPU "3.2.2"
*HW_VER_RCD_FPGA "1.2.3"
*HW_VER_RCD_GONIO_UNIT "6.2.0"
*HW_VER_RCD_INCIDENT_UNIT "6.2.0"
*HW_VER_RCD_RECEIVING_UNIT "6.1.1"
*HW_VER_RCD_TYPE "RINC"
*HW_VER_XGC_CPU "3.2.2"
*HW_VER_XGC_CW "1.3.2"
*HW_VER_XGC_HV "1.3.2"
*HW_VER_XGC_RS1 "1.3.2"
*HW_VER_XGC_RS2 "N/A"
*HW_VER_XGC_RT "N/A"
*HW_VER_XGC_TYPE "RINC"
*HW_XG_CURRENT_UNIT "mA"
*HW_XG_FOCUS "0.4mm x 8mm"
*HW_XG_FOCUS_TYPE "Fine"
*HW_XG_TARGET_ATOMIC_NUMBER "29"
*HW_XG_TARGET_NAME "Cu"
*HW_XG_TYPE "Hermetic"
*HW_XG_VOLTAGE_UNIT "kV"
*HW_XG_WAVE_LENGTH_ALPHA1 "1.540593"
*HW_XG_WAVE_LENGTH_ALPHA2 "1.544414"
*HW_XG_WAVE_LENGTH_BETA "1.392246"
*HW_XG_WAVE_LENGTH_UNIT "Angstrom"
*MEAS_COND_AXIS_NAME_INTERNAL-0 "ThetaS"
*MEAS_COND_AXIS_NAME_INTERNAL-1 "ThetaD"
*MEAS_COND_AXIS_NAME_INTERNAL-10 "PrimaryGeometry"
*MEAS_COND_AXIS_NAME_INTERNAL-100 "CounterMonochromatorKind"
*MEAS_COND_AXIS_NAME_INTERNAL-11 "PrimaryMirrorType"
*MEAS_COND_AXIS_NAME_INTERNAL-12 "CBOType"
*MEAS_COND_AXIS_NAME_INTERNAL-13 "CBO-M"
*MEAS_COND_AXIS_NAME_INTERNAL-14 "CBO"
*MEAS_COND_AXIS_NAME_INTERNAL-15 "SelectionSlitType"
*MEAS_COND_AXIS_NAME_INTERNAL-16 "IncidentSollerSlit"
*MEAS_COND_AXIS_NAME_INTERNAL-17 "ISSType"
*MEAS_COND_AXIS_NAME_INTERNAL-18 "IncidentSlitBox"
*MEAS_COND_AXIS_NAME_INTERNAL-19 "IncidentSlitBox"
*MEAS_COND_AXIS_NAME_INTERNAL-2 "TwoTheta"
*MEAS_COND_AXIS_NAME_INTERNAL-20 "IncidentSlitBox"
*MEAS_COND_AXIS_NAME_INTERNAL-21 "Zs"
*MEAS_COND_AXIS_NAME_INTERNAL-22 "IncidentAxdSlit"
*MEAS_COND_AXIS_NAME_INTERNAL-23 "IncidentAxdSlit"
*MEAS_COND_AXIS_NAME_INTERNAL-24 "IncidentAxdSlit"
*MEAS_COND_AXIS_NAME_INTERNAL-25 "Z"
*MEAS_COND_AXIS_NAME_INTERNAL-26 "DirectBeamStop"
*MEAS_COND_AXIS_NAME_INTERNAL-27 "KnifeEdge"
*MEAS_COND_AXIS_NAME_INTERNAL-28 "Beta"
*MEAS_COND_AXIS_NAME_INTERNAL-29 "Changer"
*MEAS_COND_AXIS_NAME_INTERNAL-3 "Omega"
*MEAS_COND_AXIS_NAME_INTERNAL-30 "ReceivingSlitBox1"
*MEAS_COND_AXIS_NAME_INTERNAL-31 "ReceivingSlitBox1"
*MEAS_COND_AXIS_NAME_INTERNAL-32 "ReceivingSlitBox1"
*MEAS_COND_AXIS_NAME_INTERNAL-33 "Zr"
*MEAS_COND_AXIS_NAME_INTERNAL-34 "Filter"
*MEAS_COND_AXIS_NAME_INTERNAL-35 "PSA"
*MEAS_COND_AXIS_NAME_INTERNAL-36 "ReceivingSollerSlit"
*MEAS_COND_AXIS_NAME_INTERNAL-37 "ReceivingSlitBox2"
*MEAS_COND_AXIS_NAME_INTERNAL-38 "ReceivingSlitBox2"
*MEAS_COND_AXIS_NAME_INTERNAL-39 "ReceivingSlitBox2"
*MEAS_COND_AXIS_NAME_INTERNAL-4 "TwoThetaTheta"
*MEAS_COND_AXIS_NAME_INTERNAL-40 "ModuleSensorType"
*MEAS_COND_AXIS_NAME_INTERNAL-41 "GainMode"
*MEAS_COND_AXIS_NAME_INTERNAL-42 "PHA"
*MEAS_COND_AXIS_NAME_INTERNAL-43 "DetectorBeamStop"
*MEAS_COND_AXIS_NAME_INTERNAL-44 "DetectorFilter"
*MEAS_COND_AXIS_NAME_INTERNAL-45 "DedicatedHolder"
*MEAS_COND_AXIS_NAME_INTERNAL-46 "Target_TargetTime"
*MEAS_COND_AXIS_NAME_INTERNAL-47 "Target_XrayOnTime"
*MEAS_COND_AXIS_NAME_INTERNAL-48 "Target_HVGreaseUpTime"
*MEAS_COND_AXIS_NAME_INTERNAL-49 "Target_IG"
*MEAS_COND_AXIS_NAME_INTERNAL-5 "TwoThetaOmega"
*MEAS_COND_AXIS_NAME_INTERNAL-50 "Target_GP"
*MEAS_COND_AXIS_NAME_INTERNAL-51 "Target_FC"
*MEAS_COND_AXIS_NAME_INTERNAL-52 "HVPS_Bias"
*MEAS_COND_AXIS_NAME_INTERNAL-53 "HVPS_HVPSTime"
*MEAS_COND_AXIS_NAME_INTERNAL-54 "HVPS_Type1Time"
*MEAS_COND_AXIS_NAME_INTERNAL-55 "HVPS_Type2Time"
*MEAS_COND_AXIS_NAME_INTERNAL-56 "HVPS_Type3Time"
*MEAS_COND_AXIS_NAME_INTERNAL-57 "CW_IERTime"
*MEAS_COND_AXIS_NAME_INTERNAL-58 "CW_WaterHose"
*MEAS_COND_AXIS_NAME_INTERNAL-59 "CW_CoolingWater"
*MEAS_COND_AXIS_NAME_INTERNAL-6 "OmegaTwoTheta"
*MEAS_COND_AXIS_NAME_INTERNAL-60 "CW_ECTime"
*MEAS_COND_AXIS_NAME_INTERNAL-61 "CW_Flow1"
*MEAS_COND_AXIS_NAME_INTERNAL-62 "CW_Temperature1"
*MEAS_COND_AXIS_NAME_INTERNAL-63 "CW_Pressure1"
*MEAS_COND_AXIS_NAME_INTERNAL-64 "CW_PressureIn"
*MEAS_COND_AXIS_NAME_INTERNAL-65 "CW_PressureOut"
*MEAS_COND_AXIS_NAME_INTERNAL-66 "CW_Flow2"
*MEAS_COND_AXIS_NAME_INTERNAL-67 "CW_Temperature2"
*MEAS_COND_AXIS_NAME_INTERNAL-68 "CW_Pressure2"
*MEAS_COND_AXIS_NAME_INTERNAL-69 "RE_EnclosureTemp"
*MEAS_COND_AXIS_NAME_INTERNAL-7 "TwoThetaChi"
*MEAS_COND_AXIS_NAME_INTERNAL-70 "RE_EnclosureHummidity"
*MEAS_COND_AXIS_NAME_INTERNAL-71 "RE_CabinetTemp"
*MEAS_COND_AXIS_NAME_INTERNAL-72 "RE_RPTemp"
*MEAS_COND_AXIS_NAME_INTERNAL-73 "RE_ShutterAXrayOnTime"
*MEAS_COND_AXIS_NAME_INTERNAL-74 "RE_ShutterATimes"
*MEAS_COND_AXIS_NAME_INTERNAL-75 "RE_ShutterAOpenCloseTime"
*MEAS_COND_AXIS_NAME_INTERNAL-76 "RE_ShutterACloseOpenTime"
*MEAS_COND_AXIS_NAME_INTERNAL-77 "RE_ShutterBXrayOnTime"
*MEAS_COND_AXIS_NAME_INTERNAL-78 "RE_ShutterBTimes"
*MEAS_COND_AXIS_NAME_INTERNAL-79 "RE_ShutterBOpenCloseTime"
*MEAS_COND_AXIS_NAME_INTERNAL-8 "GonioDirectBeamStop"
*MEAS_COND_AXIS_NAME_INTERNAL-80 "RE_ShutterBCloseOpenTime"
*MEAS_COND_AXIS_NAME_INTERNAL-81 "RE_XrayWarningRamp"
*MEAS_COND_AXIS_NAME_INTERNAL-82 "RE_ShutterAInstallation"
*MEAS_COND_AXIS_NAME_INTERNAL-83 "RE_ShutterARamp"
*MEAS_COND_AXIS_NAME_INTERNAL-84 "RE_ShutterBInstallation"
*MEAS_COND_AXIS_NAME_INTERNAL-85 "RE_ShutterBRamp"
*MEAS_COND_AXIS_NAME_INTERNAL-86 "RE_ExtShutterCLS"
*MEAS_COND_AXIS_NAME_INTERNAL-87 "RE_ExtXrayOFF"
*MEAS_COND_AXIS_NAME_INTERNAL-88 "RE_ExtSafetyCircuit"
*MEAS_COND_AXIS_NAME_INTERNAL-89 "Version_CPU"
*MEAS_COND_AXIS_NAME_INTERNAL-9 "Ts"
*MEAS_COND_AXIS_NAME_INTERNAL-90 "Version_RS1"
*MEAS_COND_AXIS_NAME_INTERNAL-91 "Version_RS2"
*MEAS_COND_AXIS_NAME_INTERNAL-92 "Version_HV"
*MEAS_COND_AXIS_NAME_INTERNAL-93 "Version_CW"
*MEAS_COND_AXIS_NAME_INTERNAL-94 "Version_RT"
*MEAS_COND_AXIS_NAME_INTERNAL-95 "Axis_GoniometerGreaseUp"
*MEAS_COND_AXIS_NAME_INTERNAL-96 "Lens"
*MEAS_COND_AXIS_NAME_INTERNAL-97 "IncidentPrimary"
*MEAS_COND_AXIS_NAME_INTERNAL-98 "IncidentMonochromator"
*MEAS_COND_AXIS_NAME_INTERNAL-99 "ReceivingOptics"
*MEAS_COND_AXIS_NAME-0 "ThetaS"
*MEAS_COND_AXIS_NAME-1 "ThetaD"
*MEAS_COND_AXIS_NAME-10 "PrimaryGeometry"
*MEAS_COND_AXIS_NAME-100 "CounterMonochromatorKind"
*MEAS_COND_AXIS_NAME-11 "PrimaryMirrorType"
*MEAS_COND_AXIS_NAME-12 "CBOType"
*MEAS_COND_AXIS_NAME-13 "CBO-M"
*MEAS_COND_AXIS_NAME-14 "CBO"
*MEAS_COND_AXIS_NAME-15 "SelectionSlitType"
*MEAS_COND_AXIS_NAME-16 "IncidentSollerSlit"
*MEAS_COND_AXIS_NAME-17 "ISSType"
*MEAS_COND_AXIS_NAME-18 "IncidentSlitBox"
*MEAS_COND_AXIS_NAME-19 "IncidentSlitBox-_Axis"
*MEAS_COND_AXIS_NAME-2 "TwoTheta"
*MEAS_COND_AXIS_NAME-20 "SlitDS"
*MEAS_COND_AXIS_NAME-21 "Zs"
*MEAS_COND_AXIS_NAME-22 "IncidentAxdSlit"
*MEAS_COND_AXIS_NAME-23 "LLS"
*MEAS_COND_AXIS_NAME-24 "DHLSlit"
*MEAS_COND_AXIS_NAME-25 "Z"
*MEAS_COND_AXIS_NAME-26 "DirectBeamStop"
*MEAS_COND_AXIS_NAME-27 "KnifeEdge"
*MEAS_COND_AXIS_NAME-28 "Beta"
*MEAS_COND_AXIS_NAME-29 "Changer"
*MEAS_COND_AXIS_NAME-3 "Omega"
*MEAS_COND_AXIS_NAME-30 "ReceivingSlitBox1"
*MEAS_COND_AXIS_NAME-31 "ReceivingSlitBox1-_Axis"
*MEAS_COND_AXIS_NAME-32 "SlitSS"
*MEAS_COND_AXIS_NAME-33 "Zr"
*MEAS_COND_AXIS_NAME-34 "Filter"
*MEAS_COND_AXIS_NAME-35 "PSA"
*MEAS_COND_AXIS_NAME-36 "ReceivingSollerSlit"
*MEAS_COND_AXIS_NAME-37 "ReceivingSlitBox2"
*MEAS_COND_AXIS_NAME-38 "ReceivingSlitBox2-_Axis"
*MEAS_COND_AXIS_NAME-39 "SlitRS"
*MEAS_COND_AXIS_NAME-4 "TwoThetaTheta"
*MEAS_COND_AXIS_NAME-40 "ModuleSensorType"
*MEAS_COND_AXIS_NAME-41 "GainMode"
*MEAS_COND_AXIS_NAME-42 "PHA"
*MEAS_COND_AXIS_NAME-43 "DetectorBeamStop"
*MEAS_COND_AXIS_NAME-44 "DetectorFilter"
*MEAS_COND_AXIS_NAME-45 "DedicatedHolder"
*MEAS_COND_AXIS_NAME-46 "Target_TargetTime"
*MEAS_COND_AXIS_NAME-47 "Target_XrayOnTime"
*MEAS_COND_AXIS_NAME-48 "Target_HVGreaseUpTime"
*MEAS_COND_AXIS_NAME-49 "Target_IG"
*MEAS_COND_AXIS_NAME-5 "TwoThetaOmega"
*MEAS_COND_AXIS_NAME-50 "Target_GP"
*MEAS_COND_AXIS_NAME-51 "Target_FC"
*MEAS_COND_AXIS_NAME-52 "HVPS_Bias"
*MEAS_COND_AXIS_NAME-53 "HVPS_HVPSTime"
*MEAS_COND_AXIS_NAME-54 "HVPS_Type1Time"
*MEAS_COND_AXIS_NAME-55 "HVPS_Type2Time"
*MEAS_COND_AXIS_NAME-56 "HVPS_Type3Time"
*MEAS_COND_AXIS_NAME-57 "CW_IERTime"
*MEAS_COND_AXIS_NAME-58 "CW_WaterHose"
*MEAS_COND_AXIS_NAME-59 "CW_CoolingWater"
*MEAS_COND_AXIS_NAME-6 "OmegaTwoTheta"
*MEAS_COND_AXIS_NAME-60 "CW_ECTime"
*MEAS_COND_AXIS_NAME-61 "CW_Flow1"
*MEAS_COND_AXIS_NAME-62 "CW_Temperature1"
*MEAS_COND_AXIS_NAME-63 "CW_Pressure1"
*MEAS_COND_AXIS_NAME-64 "CW_PressureIn"
*MEAS_COND_AXIS_NAME-65 "CW_PressureOut"
*MEAS_COND_AXIS_NAME-66 "CW_Flow2"
*MEAS_COND_AXIS_NAME-67 "CW_Temperature2"
*MEAS_COND_AXIS_NAME-68 "CW_Pressure2"
*MEAS_COND_AXIS_NAME-69 "RE_EnclosureTemp"
*MEAS_COND_AXIS_NAME-7 "TwoThetaChi"
*MEAS_COND_AXIS_NAME-70 "RE_EnclosureHummidity"
*MEAS_COND_AXIS_NAME-71 "RE_CabinetTemp"
*MEAS_COND_AXIS_NAME-72 "RE_RPTemp"
*MEAS_COND_AXIS_NAME-73 "RE_ShutterAXrayOnTime"
*MEAS_COND_AXIS_NAME-74 "RE_ShutterATimes"
*MEAS_COND_AXIS_NAME-75 "RE_ShutterAOpenCloseTime"
*MEAS_COND_AXIS_NAME-76 "RE_ShutterACloseOpenTime"
*MEAS_COND_AXIS_NAME-77 "RE_ShutterBXrayOnTime"
*MEAS_COND_AXIS_NAME-78 "RE_ShutterBTimes"
*MEAS_COND_AXIS_NAME-79 "RE_ShutterBOpenCloseTime"
*MEAS_COND_AXIS_NAME-8 "GonioDirectBeamStop"
*MEAS_COND_AXIS_NAME-80 "RE_ShutterBCloseOpenTime"
*MEAS_COND_AXIS_NAME-81 "RE_XrayWarningRamp"
*MEAS_COND_AXIS_NAME-82 "RE_ShutterAInstallation"
*MEAS_COND_AXIS_NAME-83 "RE_ShutterARamp"
*MEAS_COND_AXIS_NAME-84 "RE_ShutterBInstallation"
*MEAS_COND_AXIS_NAME-85 "RE_ShutterBRamp"
*MEAS_COND_AXIS_NAME-86 "RE_ExtShutterCLS"
*MEAS_COND_AXIS_NAME-87 "RE_ExtXrayOFF"
*MEAS_COND_AXIS_NAME-88 "RE_ExtSafetyCircuit"
*MEAS_COND_AXIS_NAME-89 "Version_CPU"
*MEAS_COND_AXIS_NAME-9 "Ts"
*MEAS_COND_AXIS_NAME-90 "Version_RS1"
*MEAS_COND_AXIS_NAME-91 "Version_RS2"
*MEAS_COND_AXIS_NAME-92 "Version_HV"
*MEAS_COND_AXIS_NAME-93 "Version_CW"
*MEAS_COND_AXIS_NAME-94 "Version_RT"
*MEAS_COND_AXIS_NAME-95 "Axis_GoniometerGreaseUp"
*MEAS_COND_AXIS_NAME-96 "Lens"
*MEAS_COND_AXIS_NAME-97 "IncidentPrimary"
*MEAS_COND_AXIS_NAME-98 "IncidentMonochromator"
*MEAS_COND_AXIS_NAME-99 "ReceivingOptics"
*MEAS_COND_AXIS_OFFSET-0 "0.0612"
*MEAS_COND_AXIS_OFFSET-1 "0.318"
*MEAS_COND_AXIS_OFFSET-10 "0"
*MEAS_COND_AXIS_OFFSET-100 "0"
*MEAS_COND_AXIS_OFFSET-11 "0"
*MEAS_COND_AXIS_OFFSET-12 "0"
*MEAS_COND_AXIS_OFFSET-13 "0"
*MEAS_COND_AXIS_OFFSET-14 "0"
*MEAS_COND_AXIS_OFFSET-15 "0"
*MEAS_COND_AXIS_OFFSET-16 "0"
*MEAS_COND_AXIS_OFFSET-17 "0"
*MEAS_COND_AXIS_OFFSET-18 "0"
*MEAS_COND_AXIS_OFFSET-19 "0"
*MEAS_COND_AXIS_OFFSET-2 "0.3792"
*MEAS_COND_AXIS_OFFSET-20 "0"
*MEAS_COND_AXIS_OFFSET-21 "0"
*MEAS_COND_AXIS_OFFSET-22 "0"
*MEAS_COND_AXIS_OFFSET-23 "0"
*MEAS_COND_AXIS_OFFSET-24 "0"
*MEAS_COND_AXIS_OFFSET-25 "0"
*MEAS_COND_AXIS_OFFSET-26 "0"
*MEAS_COND_AXIS_OFFSET-27 "0"
*MEAS_COND_AXIS_OFFSET-28 "0"
*MEAS_COND_AXIS_OFFSET-29 "0"
*MEAS_COND_AXIS_OFFSET-3 "0.0612"
*MEAS_COND_AXIS_OFFSET-30 "0"
*MEAS_COND_AXIS_OFFSET-31 "0"
*MEAS_COND_AXIS_OFFSET-32 "0"
*MEAS_COND_AXIS_OFFSET-33 "0"
*MEAS_COND_AXIS_OFFSET-34 "0"
*MEAS_COND_AXIS_OFFSET-35 "0"
*MEAS_COND_AXIS_OFFSET-36 "0"
*MEAS_COND_AXIS_OFFSET-37 "0"
*MEAS_COND_AXIS_OFFSET-38 "0"
*MEAS_COND_AXIS_OFFSET-39 "0"
*MEAS_COND_AXIS_OFFSET-4 "0"
*MEAS_COND_AXIS_OFFSET-40 "0"
*MEAS_COND_AXIS_OFFSET-41 "0"
*MEAS_COND_AXIS_OFFSET-42 "0"
*MEAS_COND_AXIS_OFFSET-43 "0"
*MEAS_COND_AXIS_OFFSET-44 "0"
*MEAS_COND_AXIS_OFFSET-45 "0"
*MEAS_COND_AXIS_OFFSET-46 "0"
*MEAS_COND_AXIS_OFFSET-47 "0"
*MEAS_COND_AXIS_OFFSET-48 "0"
*MEAS_COND_AXIS_OFFSET-49 "0"
*MEAS_COND_AXIS_OFFSET-5 "0"
*MEAS_COND_AXIS_OFFSET-50 "0"
*MEAS_COND_AXIS_OFFSET-51 "0"
*MEAS_COND_AXIS_OFFSET-52 "0"
*MEAS_COND_AXIS_OFFSET-53 "0"
*MEAS_COND_AXIS_OFFSET-54 "0"
*MEAS_COND_AXIS_OFFSET-55 "0"
*MEAS_COND_AXIS_OFFSET-56 "0"
*MEAS_COND_AXIS_OFFSET-57 "0"
*MEAS_COND_AXIS_OFFSET-58 "0"
*MEAS_COND_AXIS_OFFSET-59 "0"
*MEAS_COND_AXIS_OFFSET-6 "0"
*MEAS_COND_AXIS_OFFSET-60 "0"
*MEAS_COND_AXIS_OFFSET-61 "0"
*MEAS_COND_AXIS_OFFSET-62 "0"
*MEAS_COND_AXIS_OFFSET-63 "0"
*MEAS_COND_AXIS_OFFSET-64 "0"
*MEAS_COND_AXIS_OFFSET-65 "0"
*MEAS_COND_AXIS_OFFSET-66 "0"
*MEAS_COND_AXIS_OFFSET-67 "0"
*MEAS_COND_AXIS_OFFSET-68 "0"
*MEAS_COND_AXIS_OFFSET-69 "0"
*MEAS_COND_AXIS_OFFSET-7 "0"
*MEAS_COND_AXIS_OFFSET-70 "0"
*MEAS_COND_AXIS_OFFSET-71 "0"
*MEAS_COND_AXIS_OFFSET-72 "0"
*MEAS_COND_AXIS_OFFSET-73 "0"
*MEAS_COND_AXIS_OFFSET-74 "0"
*MEAS_COND_AXIS_OFFSET-75 "0"
*MEAS_COND_AXIS_OFFSET-76 "0"
*MEAS_COND_AXIS_OFFSET-77 "0"
*MEAS_COND_AXIS_OFFSET-78 "0"
*MEAS_COND_AXIS_OFFSET-79 "0"
*MEAS_COND_AXIS_OFFSET-8 "0"
*MEAS_COND_AXIS_OFFSET-80 "0"
*MEAS_COND_AXIS_OFFSET-81 "0"
*MEAS_COND_AXIS_OFFSET-82 "0"
*MEAS_COND_AXIS_OFFSET-83 "0"
*MEAS_COND_AXIS_OFFSET-84 "0"
*MEAS_COND_AXIS_OFFSET-85 "0"
*MEAS_COND_AXIS_OFFSET-86 "0"
*MEAS_COND_AXIS_OFFSET-87 "0"
*MEAS_COND_AXIS_OFFSET-88 "0"
*MEAS_COND_AXIS_OFFSET-89 "0"
*MEAS_COND_AXIS_OFFSET-9 "0"
*MEAS_COND_AXIS_OFFSET-90 "0"
*MEAS_COND_AXIS_OFFSET-91 "0"
*MEAS_COND_AXIS_OFFSET-92 "0"
*MEAS_COND_AXIS_OFFSET-93 "0"
*MEAS_COND_AXIS_OFFSET-94 "0"
*MEAS_COND_AXIS_OFFSET-95 "0"
*MEAS_COND_AXIS_OFFSET-96 "0"
*MEAS_COND_AXIS_OFFSET-97 "0"
*MEAS_COND_AXIS_OFFSET-98 "0"
*MEAS_COND_AXIS_OFFSET-99 "0"
*MEAS_COND_AXIS_POSITION-0 "45.9789"
*MEAS_COND_AXIS_POSITION-1 "45.9789"
*MEAS_COND_AXIS_POSITION-10 "Right"
*MEAS_COND_AXIS_POSITION-100 "None"
*MEAS_COND_AXIS_POSITION-11 "None"
*MEAS_COND_AXIS_POSITION-12 "Type1"
*MEAS_COND_AXIS_POSITION-13 "0"
*MEAS_COND_AXIS_POSITION-14 "BB"
*MEAS_COND_AXIS_POSITION-15 "Type1"
*MEAS_COND_AXIS_POSITION-16 "Soller_slit_5.0deg"
*MEAS_COND_AXIS_POSITION-17 "Type1"
*MEAS_COND_AXIS_POSITION-18 "2/3deg"
*MEAS_COND_AXIS_POSITION-19 "2.210625"
*MEAS_COND_AXIS_POSITION-2 "91.9578"
*MEAS_COND_AXIS_POSITION-20 "2/3deg"
*MEAS_COND_AXIS_POSITION-21 "0.6000000"
*MEAS_COND_AXIS_POSITION-22 "10mm"
*MEAS_COND_AXIS_POSITION-23 "10mm"
*MEAS_COND_AXIS_POSITION-24 "10mm"
*MEAS_COND_AXIS_POSITION-25 "0.27080"
*MEAS_COND_AXIS_POSITION-26 "Out"
*MEAS_COND_AXIS_POSITION-27 "None"
*MEAS_COND_AXIS_POSITION-29 "4"
*MEAS_COND_AXIS_POSITION-3 "45.9789"
*MEAS_COND_AXIS_POSITION-30 "Open"
*MEAS_COND_AXIS_POSITION-31 "20.000000"
*MEAS_COND_AXIS_POSITION-32 "Open"
*MEAS_COND_AXIS_POSITION-33 "-0.6909375"
*MEAS_COND_AXIS_POSITION-34 "Cu_K-beta"
*MEAS_COND_AXIS_POSITION-35 "PSA_open"
*MEAS_COND_AXIS_POSITION-36 "Soller_slit_5.0deg"
*MEAS_COND_AXIS_POSITION-37 "20.100mm"
*MEAS_COND_AXIS_POSITION-38 "20.1"
*MEAS_COND_AXIS_POSITION-39 "20.100mm"
*MEAS_COND_AXIS_POSITION-4 "91.9578"
*MEAS_COND_AXIS_POSITION-40 "DC"
*MEAS_COND_AXIS_POSITION-41 "Mo-HiC"
*MEAS_COND_AXIS_POSITION-43 "None"
*MEAS_COND_AXIS_POSITION-44 "None"
*MEAS_COND_AXIS_POSITION-45 "None"
*MEAS_COND_AXIS_POSITION-5 "91.9578"
*MEAS_COND_AXIS_POSITION-6 "45.9789"
*MEAS_COND_AXIS_POSITION-7 "0.0000"
*MEAS_COND_AXIS_POSITION-8 "Out"
*MEAS_COND_AXIS_POSITION-9 "0.0000000"
*MEAS_COND_AXIS_POSITION-96 "1"
*MEAS_COND_AXIS_POSITION-97 "Standard"
*MEAS_COND_AXIS_POSITION-98 "IPS_adaptor"
*MEAS_COND_AXIS_POSITION-99 "PSA_open"
*MEAS_COND_AXIS_RESOLUTION-0 "0.0001"
*MEAS_COND_AXIS_RESOLUTION-1 "0.0001"
*MEAS_COND_AXIS_RESOLUTION-10 ""
*MEAS_COND_AXIS_RESOLUTION-11 ""
*MEAS_COND_AXIS_RESOLUTION-12 ""
*MEAS_COND_AXIS_RESOLUTION-13 "1"
*MEAS_COND_AXIS_RESOLUTION-14 ""
*MEAS_COND_AXIS_RESOLUTION-15 ""
*MEAS_COND_AXIS_RESOLUTION-16 ""
*MEAS_COND_AXIS_RESOLUTION-17 ""
*MEAS_COND_AXIS_RESOLUTION-18 "1/1600"
*MEAS_COND_AXIS_RESOLUTION-19 "1/1600"
*MEAS_COND_AXIS_RESOLUTION-2 "0.0001"
*MEAS_COND_AXIS_RESOLUTION-20 "1/1600"
*MEAS_COND_AXIS_RESOLUTION-21 "0.0003125"
*MEAS_COND_AXIS_RESOLUTION-22 ""
*MEAS_COND_AXIS_RESOLUTION-23 ""
*MEAS_COND_AXIS_RESOLUTION-24 ""
*MEAS_COND_AXIS_RESOLUTION-25 "0.00002"
*MEAS_COND_AXIS_RESOLUTION-26 ""
*MEAS_COND_AXIS_RESOLUTION-27 ""
*MEAS_COND_AXIS_RESOLUTION-28 "0.09"
*MEAS_COND_AXIS_RESOLUTION-29 "1"
*MEAS_COND_AXIS_RESOLUTION-3 "0.0001"
*MEAS_COND_AXIS_RESOLUTION-30 "1/1600"
*MEAS_COND_AXIS_RESOLUTION-31 "1/1600"
*MEAS_COND_AXIS_RESOLUTION-32 "1/1600"
*MEAS_COND_AXIS_RESOLUTION-33 "0.0003125"
*MEAS_COND_AXIS_RESOLUTION-34 ""
*MEAS_COND_AXIS_RESOLUTION-35 ""
*MEAS_COND_AXIS_RESOLUTION-36 ""
*MEAS_COND_AXIS_RESOLUTION-37 "0.1"
*MEAS_COND_AXIS_RESOLUTION-38 "0.1"
*MEAS_COND_AXIS_RESOLUTION-39 "0.1"
*MEAS_COND_AXIS_RESOLUTION-4 "0.0002"
*MEAS_COND_AXIS_RESOLUTION-40 ""
*MEAS_COND_AXIS_RESOLUTION-41 ""
*MEAS_COND_AXIS_RESOLUTION-42 "1"
*MEAS_COND_AXIS_RESOLUTION-43 ""
*MEAS_COND_AXIS_RESOLUTION-44 ""
*MEAS_COND_AXIS_RESOLUTION-45 ""
*MEAS_COND_AXIS_RESOLUTION-46 "0.01"
*MEAS_COND_AXIS_RESOLUTION-47 "0.010000"
*MEAS_COND_AXIS_RESOLUTION-48 "0.01"
*MEAS_COND_AXIS_RESOLUTION-49 "1"
*MEAS_COND_AXIS_RESOLUTION-5 "0.0002"
*MEAS_COND_AXIS_RESOLUTION-50 "1"
*MEAS_COND_AXIS_RESOLUTION-51 "0.01"
*MEAS_COND_AXIS_RESOLUTION-52 "1"
*MEAS_COND_AXIS_RESOLUTION-53 "0.01"
*MEAS_COND_AXIS_RESOLUTION-54 "0.01"
*MEAS_COND_AXIS_RESOLUTION-55 "0.01"
*MEAS_COND_AXIS_RESOLUTION-56 "0.01"
*MEAS_COND_AXIS_RESOLUTION-57 "0.010000"
*MEAS_COND_AXIS_RESOLUTION-58 "0.01"
*MEAS_COND_AXIS_RESOLUTION-59 "0.01"
*MEAS_COND_AXIS_RESOLUTION-6 "0.0001"
*MEAS_COND_AXIS_RESOLUTION-60 "1"
*MEAS_COND_AXIS_RESOLUTION-61 "0.100000"
*MEAS_COND_AXIS_RESOLUTION-62 "1.000000"
*MEAS_COND_AXIS_RESOLUTION-63 "0.010000"
*MEAS_COND_AXIS_RESOLUTION-64 "0.01"
*MEAS_COND_AXIS_RESOLUTION-65 "0.01"
*MEAS_COND_AXIS_RESOLUTION-66 "0.1"
*MEAS_COND_AXIS_RESOLUTION-67 "1"
*MEAS_COND_AXIS_RESOLUTION-68 "0.01"
*MEAS_COND_AXIS_RESOLUTION-69 "1.000000"
*MEAS_COND_AXIS_RESOLUTION-7 "0.0005"
*MEAS_COND_AXIS_RESOLUTION-70 "1"
*MEAS_COND_AXIS_RESOLUTION-71 "1.000000"
*MEAS_COND_AXIS_RESOLUTION-72 "1"
*MEAS_COND_AXIS_RESOLUTION-73 "0.01"
*MEAS_COND_AXIS_RESOLUTION-74 "1"
*MEAS_COND_AXIS_RESOLUTION-75 "1"
*MEAS_COND_AXIS_RESOLUTION-76 "1"
*MEAS_COND_AXIS_RESOLUTION-77 "0.01"
*MEAS_COND_AXIS_RESOLUTION-78 "1.000000"
*MEAS_COND_AXIS_RESOLUTION-79 "1.000000"
*MEAS_COND_AXIS_RESOLUTION-8 ""
*MEAS_COND_AXIS_RESOLUTION-80 "1.000000"
*MEAS_COND_AXIS_RESOLUTION-81 "-"
*MEAS_COND_AXIS_RESOLUTION-82 "-"
*MEAS_COND_AXIS_RESOLUTION-83 "-"
*MEAS_COND_AXIS_RESOLUTION-84 "1.000000"
*MEAS_COND_AXIS_RESOLUTION-85 "-"
*MEAS_COND_AXIS_RESOLUTION-86 "-"
*MEAS_COND_AXIS_RESOLUTION-87 "-"
*MEAS_COND_AXIS_RESOLUTION-88 "1.000000"
*MEAS_COND_AXIS_RESOLUTION-89 "1.000000"
*MEAS_COND_AXIS_RESOLUTION-9 "0.0000625"
*MEAS_COND_AXIS_RESOLUTION-90 "1.000000"
*MEAS_COND_AXIS_RESOLUTION-91 "1.000000"
*MEAS_COND_AXIS_RESOLUTION-92 "1.000000"
*MEAS_COND_AXIS_RESOLUTION-93 "1.000000"
*MEAS_COND_AXIS_RESOLUTION-94 "1.000000"
*MEAS_COND_AXIS_RESOLUTION-95 "0.01"
*MEAS_COND_AXIS_RESOLUTION-96 ""
*MEAS_COND_AXIS_SPEED_RESOLUTION-28 "0.1"
*MEAS_COND_AXIS_SPEED_UNIT-28 "rpm"
*MEAS_COND_AXIS_SPEED-28 "10"
*MEAS_COND_AXIS_STATE-0 "Fixed"
*MEAS_COND_AXIS_STATE-1 "Fixed"
*MEAS_COND_AXIS_STATE-10 "Fixed"
*MEAS_COND_AXIS_STATE-11 "Fixed"
*MEAS_COND_AXIS_STATE-12 "Fixed"
*MEAS_COND_AXIS_STATE-13 "Fixed"
*MEAS_COND_AXIS_STATE-14 "Fixed"
*MEAS_COND_AXIS_STATE-15 "Fixed"
*MEAS_COND_AXIS_STATE-16 "Fixed"
*MEAS_COND_AXIS_STATE-17 "Fixed"
*MEAS_COND_AXIS_STATE-18 "Fixed"
*MEAS_COND_AXIS_STATE-19 "Fixed"
*MEAS_COND_AXIS_STATE-2 "Fixed"
*MEAS_COND_AXIS_STATE-20 "Fixed"
*MEAS_COND_AXIS_STATE-21 "Fixed"
*MEAS_COND_AXIS_STATE-22 "Fixed"
*MEAS_COND_AXIS_STATE-23 "Fixed"
*MEAS_COND_AXIS_STATE-24 "Fixed"
*MEAS_COND_AXIS_STATE-25 "Fixed"
*MEAS_COND_AXIS_STATE-26 "Fixed"
*MEAS_COND_AXIS_STATE-27 "Fixed"
*MEAS_COND_AXIS_STATE-28 "Rotation"
*MEAS_COND_AXIS_STATE-29 "Fixed"
*MEAS_COND_AXIS_STATE-3 "Fixed"
*MEAS_COND_AXIS_STATE-30 "Fixed"
*MEAS_COND_AXIS_STATE-31 "Fixed"
*MEAS_COND_AXIS_STATE-32 "Fixed"
*MEAS_COND_AXIS_STATE-33 "Fixed"
*MEAS_COND_AXIS_STATE-34 "Fixed"
*MEAS_COND_AXIS_STATE-35 "Fixed"
*MEAS_COND_AXIS_STATE-36 "Fixed"
*MEAS_COND_AXIS_STATE-37 "Fixed"
*MEAS_COND_AXIS_STATE-38 "Fixed"
*MEAS_COND_AXIS_STATE-39 "Fixed"
*MEAS_COND_AXIS_STATE-4 "Scan"
*MEAS_COND_AXIS_STATE-40 "Fixed"
*MEAS_COND_AXIS_STATE-41 "Fixed"
*MEAS_COND_AXIS_STATE-42 "Fixed"
*MEAS_COND_AXIS_STATE-43 "Fixed"
*MEAS_COND_AXIS_STATE-44 "Fixed"
*MEAS_COND_AXIS_STATE-45 "Fixed"
*MEAS_COND_AXIS_STATE-46 "Fixed"
*MEAS_COND_AXIS_STATE-47 "Fixed"
*MEAS_COND_AXIS_STATE-48 "Fixed"
*MEAS_COND_AXIS_STATE-49 "Fixed"
*MEAS_COND_AXIS_STATE-5 "Fixed"
*MEAS_COND_AXIS_STATE-50 "Fixed"
*MEAS_COND_AXIS_STATE-51 "Fixed"
*MEAS_COND_AXIS_STATE-52 "Fixed"
*MEAS_COND_AXIS_STATE-53 "Fixed"
*MEAS_COND_AXIS_STATE-54 "Fixed"
*MEAS_COND_AXIS_STATE-55 "Fixed"
*MEAS_COND_AXIS_STATE-56 "Fixed"
*MEAS_COND_AXIS_STATE-57 "Fixed"
*MEAS_COND_AXIS_STATE-58 "Fixed"
*MEAS_COND_AXIS_STATE-59 "Fixed"
*MEAS_COND_AXIS_STATE-6 "Fixed"
*MEAS_COND_AXIS_STATE-60 "Fixed"
*MEAS_COND_AXIS_STATE-61 "Fixed"
*MEAS_COND_AXIS_STATE-62 "Fixed"
*MEAS_COND_AXIS_STATE-63 "Fixed"
*MEAS_COND_AXIS_STATE-64 "Fixed"
*MEAS_COND_AXIS_STATE-65 "Fixed"
*MEAS_COND_AXIS_STATE-66 "Fixed"
*MEAS_COND_AXIS_STATE-67 "Fixed"
*MEAS_COND_AXIS_STATE-68 "Fixed"
*MEAS_COND_AXIS_STATE-69 "Fixed"
*MEAS_COND_AXIS_STATE-7 "Fixed"
*MEAS_COND_AXIS_STATE-70 "Fixed"
*MEAS_COND_AXIS_STATE-71 "Fixed"
*MEAS_COND_AXIS_STATE-72 "Fixed"
*MEAS_COND_AXIS_STATE-73 "Fixed"
*MEAS_COND_AXIS_STATE-74 "Fixed"
*MEAS_COND_AXIS_STATE-75 "Fixed"
*MEAS_COND_AXIS_STATE-76 "Fixed"
*MEAS_COND_AXIS_STATE-77 "Fixed"
*MEAS_COND_AXIS_STATE-78 "Fixed"
*MEAS_COND_AXIS_STATE-79 "Fixed"
*MEAS_COND_AXIS_STATE-8 "Fixed"
*MEAS_COND_AXIS_STATE-80 "Fixed"
*MEAS_COND_AXIS_STATE-81 "Fixed"
*MEAS_COND_AXIS_STATE-82 "Fixed"
*MEAS_COND_AXIS_STATE-83 "Fixed"
*MEAS_COND_AXIS_STATE-84 "Fixed"
*MEAS_COND_AXIS_STATE-85 "Fixed"
*MEAS_COND_AXIS_STATE-86 "Fixed"
*MEAS_COND_AXIS_STATE-87 "Fixed"
*MEAS_COND_AXIS_STATE-88 "Fixed"
*MEAS_COND_AXIS_STATE-89 "Fixed"
*MEAS_COND_AXIS_STATE-9 "Fixed"
*MEAS_COND_AXIS_STATE-90 "Fixed"
*MEAS_COND_AXIS_STATE-91 "Fixed"
*MEAS_COND_AXIS_STATE-92 "Fixed"
*MEAS_COND_AXIS_STATE-93 "Fixed"
*MEAS_COND_AXIS_STATE-94 "Fixed"
*MEAS_COND_AXIS_STATE-95 "Fixed"
*MEAS_COND_AXIS_STATE-96 "Fixed"
*MEAS_COND_AXIS_UNIT-0 "deg"
*MEAS_COND_AXIS_UNIT-1 "deg"
*MEAS_COND_AXIS_UNIT-10 ""
*MEAS_COND_AXIS_UNIT-100 ""
*MEAS_COND_AXIS_UNIT-11 ""
*MEAS_COND_AXIS_UNIT-12 ""
*MEAS_COND_AXIS_UNIT-13 "pulse"
*MEAS_COND_AXIS_UNIT-14 ""
*MEAS_COND_AXIS_UNIT-15 ""
*MEAS_COND_AXIS_UNIT-16 ""
*MEAS_COND_AXIS_UNIT-17 ""
*MEAS_COND_AXIS_UNIT-18 ""
*MEAS_COND_AXIS_UNIT-19 "mm"
*MEAS_COND_AXIS_UNIT-2 "deg"
*MEAS_COND_AXIS_UNIT-20 ""
*MEAS_COND_AXIS_UNIT-21 "mm"
*MEAS_COND_AXIS_UNIT-22 ""
*MEAS_COND_AXIS_UNIT-23 ""
*MEAS_COND_AXIS_UNIT-24 ""
*MEAS_COND_AXIS_UNIT-25 "mm"
*MEAS_COND_AXIS_UNIT-26 ""
*MEAS_COND_AXIS_UNIT-27 ""
*MEAS_COND_AXIS_UNIT-28 "deg"
*MEAS_COND_AXIS_UNIT-29 ""
*MEAS_COND_AXIS_UNIT-3 "deg"
*MEAS_COND_AXIS_UNIT-30 ""
*MEAS_COND_AXIS_UNIT-31 "mm"
*MEAS_COND_AXIS_UNIT-32 ""
*MEAS_COND_AXIS_UNIT-33 "mm"
*MEAS_COND_AXIS_UNIT-34 ""
*MEAS_COND_AXIS_UNIT-35 ""
*MEAS_COND_AXIS_UNIT-36 ""
*MEAS_COND_AXIS_UNIT-37 ""
*MEAS_COND_AXIS_UNIT-38 "mm"
*MEAS_COND_AXIS_UNIT-39 ""
*MEAS_COND_AXIS_UNIT-4 "deg"
*MEAS_COND_AXIS_UNIT-40 ""
*MEAS_COND_AXIS_UNIT-41 ""
*MEAS_COND_AXIS_UNIT-42 "keV"
*MEAS_COND_AXIS_UNIT-43 ""
*MEAS_COND_AXIS_UNIT-44 ""
*MEAS_COND_AXIS_UNIT-45 ""
*MEAS_COND_AXIS_UNIT-46 "H"
*MEAS_COND_AXIS_UNIT-47 "H"
*MEAS_COND_AXIS_UNIT-48 "H"
*MEAS_COND_AXIS_UNIT-49 "mV"
*MEAS_COND_AXIS_UNIT-5 "deg"
*MEAS_COND_AXIS_UNIT-50 "V"
*MEAS_COND_AXIS_UNIT-51 "V"
*MEAS_COND_AXIS_UNIT-52 "V"
*MEAS_COND_AXIS_UNIT-53 "H"
*MEAS_COND_AXIS_UNIT-54 "H"
*MEAS_COND_AXIS_UNIT-55 "H"
*MEAS_COND_AXIS_UNIT-56 "H"
*MEAS_COND_AXIS_UNIT-57 "H"
*MEAS_COND_AXIS_UNIT-58 "H"
*MEAS_COND_AXIS_UNIT-59 "H"
*MEAS_COND_AXIS_UNIT-6 "deg"
*MEAS_COND_AXIS_UNIT-60 "uS/m"
*MEAS_COND_AXIS_UNIT-61 "L/min"
*MEAS_COND_AXIS_UNIT-62 "degree"
*MEAS_COND_AXIS_UNIT-63 "MPa"
*MEAS_COND_AXIS_UNIT-64 "MPa"
*MEAS_COND_AXIS_UNIT-65 "MPa"
*MEAS_COND_AXIS_UNIT-66 "L/min"
*MEAS_COND_AXIS_UNIT-67 "C"
*MEAS_COND_AXIS_UNIT-68 "MPa"
*MEAS_COND_AXIS_UNIT-69 "degree"
*MEAS_COND_AXIS_UNIT-7 "deg"
*MEAS_COND_AXIS_UNIT-70 "percent"
*MEAS_COND_AXIS_UNIT-71 "degree"
*MEAS_COND_AXIS_UNIT-72 "C"
*MEAS_COND_AXIS_UNIT-73 "H"
*MEAS_COND_AXIS_UNIT-74 "time"
*MEAS_COND_AXIS_UNIT-75 "msec"
*MEAS_COND_AXIS_UNIT-76 "msec"
*MEAS_COND_AXIS_UNIT-77 "H"
*MEAS_COND_AXIS_UNIT-78 "times"
*MEAS_COND_AXIS_UNIT-79 "msec"
*MEAS_COND_AXIS_UNIT-8 ""
*MEAS_COND_AXIS_UNIT-80 "msec"
*MEAS_COND_AXIS_UNIT-81 "-"
*MEAS_COND_AXIS_UNIT-82 "-"
*MEAS_COND_AXIS_UNIT-83 "-"
*MEAS_COND_AXIS_UNIT-84 ""
*MEAS_COND_AXIS_UNIT-85 "-"
*MEAS_COND_AXIS_UNIT-86 "-"
*MEAS_COND_AXIS_UNIT-87 "-"
*MEAS_COND_AXIS_UNIT-88 ""
*MEAS_COND_AXIS_UNIT-89 ""
*MEAS_COND_AXIS_UNIT-9 "mm"
*MEAS_COND_AXIS_UNIT-90 ""
*MEAS_COND_AXIS_UNIT-91 ""
*MEAS_COND_AXIS_UNIT-92 ""
*MEAS_COND_AXIS_UNIT-93 ""
*MEAS_COND_AXIS_UNIT-94 ""
*MEAS_COND_AXIS_UNIT-95 "H"
*MEAS_COND_AXIS_UNIT-96 ""
*MEAS_COND_AXIS_UNIT-97 ""
*MEAS_COND_AXIS_UNIT-98 ""
*MEAS_COND_AXIS_UNIT-99 ""
*MEAS_COND_COUNTER_CENTER_X "382.5"
*MEAS_COND_COUNTER_CENTER_Y "197.5"
*MEAS_COND_COUNTER_COUNTMODE "Differential"
*MEAS_COND_COUNTER_DEADTIMECORRECTION "Enabled"
*MEAS_COND_COUNTER_DISTANCE "300"
*MEAS_COND_COUNTER_ENERGYMODE "XRFReduction"
*MEAS_COND_COUNTER_INTEGRALMODE "Line"
*MEAS_COND_COUNTER_PHA_UNIT "keV"
*MEAS_COND_COUNTER_PHABASE "7.0"
*MEAS_COND_COUNTER_PHAWINDOW "5.0"
*MEAS_COND_COUNTER_PITCH_X "0.1"
*MEAS_COND_COUNTER_PITCH_Y "0.1"
*MEAS_COND_COUNTER_PITCHUNIT "mm"
*MEAS_COND_COUNTER_VALIDWIDTH_X "200"
*MEAS_COND_COUNTER_VALIDWIDTH_Y "201"
*MEAS_COND_OPT_ATTR "BB"
*MEAS_COND_OPT_NAME "User defined settings"
*MEAS_COND_XG_CURRENT "35"
*MEAS_COND_XG_VOLTAGE "40"
*MEAS_COND_XG_WAVE_TYPE "Ka"
*MEAS_DATA_COUNT "7501"
*MEAS_SCAN_AXIS_X "TwoThetaTheta"
*MEAS_SCAN_AXIS_X_INTERNAL "TwoThetaTheta"
*MEAS_SCAN_END_TIME "07/14/2023 13:05:37"
*MEAS_SCAN_MODE "CONTINUOUS"
*MEAS_SCAN_MODE_INTERNAL "TDI_1D"
*MEAS_SCAN_RESOLUTION_X "0.0002"
*MEAS_SCAN_SPEED "4.0000"
*MEAS_SCAN_SPEED_UNIT "deg/min"
*MEAS_SCAN_START "15.0000"
*MEAS_SCAN_START_TIME "07/14/2023 12:45:25"
*MEAS_SCAN_STEP "0.0100"
*MEAS_SCAN_STOP "90.0000"
*MEAS_SCAN_UNEQUALY_SPACED "False"
*MEAS_SCAN_UNIT_X "deg"
*MEAS_SCAN_UNIT_Y "cps"
#Intensity_unit=cps
#Attenuator_coefficient=1.0000
15.0000 16761.2060
15.0100 17578.8330
15.0200 17680.7438
15.0300 17265.3842
15.0400 17522.1794
15.0500 17126.1246
15.0600 17501.7854
15.0700 17432.6140
15.0800 17346.8588
15.0900 17948.3382
15.1000 17024.4922
15.1100 17737.7294
15.1200 17630.4476
15.1300 17548.4830
15.1400 16831.9514
15.1500 17029.5704
15.1600 17240.8154
15.1700 17168.8020
15.1800 17859.9236
15.1900 17852.1208
15.2000 17939.6876
15.2100 17041.4486
15.2200 17172.3780
15.2300 17182.7702
15.2400 17478.8460
15.2500 17624.1894
15.2600 16886.6406
15.2700 17417.2444
15.2800 16951.8930
15.2900 16965.4314
15.3000 17206.2500
15.3100 16717.5586
15.3200 17147.7490
15.3300 17303.4782
15.3400 17511.4322
15.3500 17131.3216
15.3600 17319.2676
15.3700 17766.3118
15.3800 16923.4586
15.3900 16992.1582
15.4000 17844.7722
15.4100 17521.5072
15.4200 17852.6400
15.4300 17551.7822
15.4400 17454.5898
15.4500 17260.0162
15.4600 17318.4244
15.4700 17009.4434
15.4800 17156.4812
15.4900 17168.1738
15.5000 17257.5228
15.5100 17303.4798
15.5200 16965.4948
15.5300 17010.9652
15.5400 17196.6520
15.5500 17357.4544
15.5600 17321.0498
15.5700 17159.7120
15.5800 16562.4268
15.5900 17534.2268
15.6000 17277.6090
15.6100 16756.2076
15.6200 17476.8848
15.6300 17268.0144
15.6400 16597.3340
15.6500 17270.2278
15.6600 17034.6158
15.6700 16453.8412
15.6800 17162.5130
15.6900 16285.2784
15.7000 16332.5814
15.7100 17075.5240
15.7200 17177.8956
15.7300 16804.4580
15.7400 16423.1380
15.7500 17475.0488
15.7600 16604.1308
15.7700 17404.7444
15.7800 16891.4550
15.7900 16421.7090
15.8000 16936.6080
15.8100 16998.5058
15.8200 17004.4792
15.8300 16532.5520
15.8400 16670.8170
15.8500 16399.5914
15.8600 16368.5580
15.8700 16393.4668
15.8800 16652.7180
15.8900 16333.8948
15.9000 16536.8570
15.9100 16507.8418
15.9200 16947.3714
15.9300 16578.9014
15.9400 16575.0390
15.9500 16669.9870
15.9600 16592.8858
15.9700 16492.8238
15.9800 16364.8974
15.9900 16423.6116
16.0000 16499.7478
16.0100 15736.1166
16.0200 16608.8444
16.0300 16479.1862
16.0400 16658.0876
16.0500 16710.8350
16.0600 16091.3558
16.0700 16262.4772
16.0800 17102.1338
16.0900 16181.5170
16.1000 16893.2194
16.1100 16820.2816
16.1200 17181.4908
16.1300 16372.5228
16.1400 16353.8070
16.1500 16509.0152
16.1600 16119.4938
16.1700 15824.4906
16.1800 16302.8630
16.1900 16176.7366
16.2000 16792.8760
16.2100 16427.7034
16.2200 16107.6106
16.2300 16392.9996
16.2400 16226.8798
16.2500 16013.2764
16.2600 16670.6510
16.2700 16623.9486
16.2800 16200.9798
16.2900 15828.7696
16.3000 15794.1178
16.3100 16172.2266
16.3200 16121.1832
16.3300 16255.1806
16.3400 16176.0628
16.3500 16360.3922
16.3600 16515.6918
16.3700 16515.7128
16.3800 16227.0540
16.3900 16032.4366
16.4000 16238.3056
16.4100 16381.4550
16.4200 15900.5534
16.4300 15510.8204
16.4400 15857.0134
16.4500 15435.7014
16.4600 16257.2640
16.4700 16000.1140
16.4800 15693.1136
16.4900 16441.7546
16.5000 15958.6556
16.5100 16237.3112
16.5200 15836.5170
16.5300 16083.6100
16.5400 16085.8838
16.5500 16082.1158
16.5600 15728.1462
16.5700 16010.6234
16.5800 15905.5990
16.5900 15284.3506
16.6000 15387.6628
16.6100 15907.1468
16.6200 15764.1308
16.6300 15889.6500
16.6400 16614.9480
16.6500 15916.2452
16.6600 15525.1204
16.6700 15670.2360
16.6800 15754.8682
16.6900 16083.7874
16.7000 16191.9190
16.7100 15324.9154
16.7200 15825.1368
16.7300 15534.0706
16.7400 15467.2266
16.7500 15189.0494
16.7600 15149.5752
16.7700 15979.1114
16.7800 16127.7344
16.7900 15971.2500
16.8000 15351.0612
16.8100 14957.5700
16.8200 15193.9128
16.8300 15714.5214
16.8400 15682.1516
16.8500 15043.4392
16.8600 15750.9944
16.8700 15839.5346
16.8800 15531.0758
16.8900 15963.9794
16.9000 15801.6780
16.9100 15551.7058
16.9200 16127.5374
16.9300 16249.8242
16.9400 15324.2464
16.9500 15575.8252
16.9600 15636.6862
16.9700 15879.5476
16.9800 15544.2822
16.9900 15780.7634
17.0000 15405.0878
17.0100 15467.8450
17.0200 15526.6162
17.0300 15801.9890
17.0400 15767.0834
17.0500 15310.9750
17.0600 15117.4170
17.0700 15048.9958
17.0800 15401.1524
17.0900 15032.4170
17.1000 15154.5866
17.1100 14909.7754
17.1200 15360.2766
17.1300 15665.4476
17.1400 15544.9446
17.1500 15679.6338
17.1600 15535.4280
17.1700 15605.4590
17.1800 15613.8330
17.1900 15264.7006
17.2000 15004.8730
17.2100 15322.3600
17.2200 14800.3630
17.2300 15340.3858
17.2400 15939.6044
17.2500 15352.3404
17.2600 14955.4296
17.2700 15384.9560
17.2800 15022.9330
17.2900 15545.7650
17.3000 14840.3076
17.3100 14818.1494
17.3200 15112.1582
17.3300 14914.9414
17.3400 15214.1682
17.3500 15428.8134
17.3600 14844.5800
17.3700 14657.4626
17.3800 15288.3398
17.3900 15289.9348
17.4000 15563.5320
17.4100 15336.6292
17.4200 15359.4384
17.4300 14902.8516
17.4400 14438.7012
17.4500 14712.2234
17.4600 14957.5830
17.4700 15342.6334
17.4800 15171.4128
17.4900 14245.3370
17.5000 14997.8402
17.5100 15000.9994
17.5200 14541.2810
17.5300 14332.0948
17.5400 14606.5918
17.5500 15305.8676
17.5600 15235.0130
17.5700 14940.7096
17.5800 15108.1446
17.5900 14805.7048
17.6000 14735.5762
17.6100 14454.5818
17.6200 15058.5368
17.6300 14863.5938
17.6400 15117.9296
17.6500 15353.6068
17.6600 14890.7650
17.6700 14860.7796
17.6800 14665.5486
17.6900 15323.7354
17.7000 14397.3650
17.7100 14740.5958
17.7200 15074.7396
17.7300 15390.9408
17.7400 15566.1182
17.7500 14480.4248
17.7600 13882.9688
17.7700 14518.9112
17.7800 14060.7600
17.7900 14696.2760
17.8000 14848.3610
17.8100 14332.3730
17.8200 14449.9690
17.8300 14729.1438
17.8400 14555.2588
17.8500 14797.6692
17.8600 14738.0712
17.8700 14920.8658
17.8800 14501.0580
17.8900 14837.3958
17.9000 14845.5420
17.9100 14943.1282
17.9200 14809.6680
17.9300 14520.8318
17.9400 14369.7494
17.9500 14436.7594
17.9600 14710.3988
17.9700 14598.4374
17.9800 14582.3650
17.9900 14653.9160
18.0000 14548.2014
18.0100 14724.2106
18.0200 14862.2054
18.0300 14766.4990
18.0400 14427.9654
18.0500 14361.9026
18.0600 14848.7776
18.0700 14490.2034
18.0800 14384.0756
18.0900 14747.3876
18.1000 14440.2376
18.1100 13943.2504
18.1200 14544.9740
18.1300 14687.4382
18.1400 14713.5774
18.1500 14570.9522
18.1600 14714.4076
18.1700 14276.4388
18.1800 14121.1360
18.1900 14010.7862
18.2000 14412.2364
18.2100 14325.3256
18.2200 15083.3024
18.2300 14120.8626
18.2400 14527.0052
18.2500 14576.0466
18.2600 14091.2418
18.2700 14027.1874
18.2800 14339.9952
18.2900 13863.7630
18.3000 14287.4040
18.3100 14313.8998
18.3200 14329.5362
18.3300 14066.1540
18.3400 13718.2568
18.3500 14455.6088
18.3600 14000.1106
18.3700 13618.8274
18.3800 13693.2958
18.3900 14061.6000
18.4000 14098.3464
18.4100 14127.1956
18.4200 13839.1618
18.4300 13846.2776
18.4400 14174.1992
18.4500 14384.0348
18.4600 14378.9812
18.4700 14366.4030
18.4800 14394.2790
18.4900 14231.8164
18.5000 14332.4626
18.5100 14620.8090
18.5200 13737.9900
18.5300 14096.4958
18.5400 14066.2712
18.5500 13988.9942
18.5600 14277.0524
18.5700 14262.0800
18.5800 14114.8780
18.5900 14310.2214
18.6000 14106.0904
18.6100 14083.2748
18.6200 14003.1462
18.6300 13954.5232
18.6400 14034.8502
18.6500 13766.0986
18.6600 13615.0854
18.6700 13894.6728
18.6800 13730.5322
18.6900 14093.0306
18.7000 13925.9244
18.7100 14108.2910
18.7200 13702.7198
18.7300 14097.2348
18.7400 14221.4828
18.7500 13861.4192
18.7600 13879.1570
18.7700 14066.4502
18.7800 13620.5022
18.7900 13353.2348
18.8000 13793.0420
18.8100 13687.2722
18.8200 13503.7898
18.8300 13667.3178
18.8400 13933.5514
18.8500 14252.1176
18.8600 13373.4986
18.8700 13294.9438
18.8800 13294.1366
18.8900 13395.1432
18.9000 13568.7768
18.9100 14406.4470
18.9200 14131.9402
18.9300 13551.6244
18.9400 14009.6468
18.9500 13635.5542
18.9600 14315.8822
18.9700 13584.5898
18.9800 13419.4628
18.9900 13828.1852
19.0000 13724.0494
19.0100 13535.5388
19.0200 13481.4086
19.0300 13658.3072
19.0400 13766.5512
19.0500 13283.7712
19.0600 13747.7572
19.0700 14173.2520
19.0800 14005.3174
19.0900 13939.6176
19.1000 13486.0994
19.1100 13343.3854
19.1200 13568.7622
19.1300 13433.8062
19.1400 13430.4280
19.1500 13576.5162
19.1600 13425.9236
19.1700 13387.7726
19.1800 13646.8888
19.1900 13294.5346
19.2000 13583.5514
19.2100 13587.7084
19.2200 13372.7540
19.2300 13251.6438
19.2400 13097.1476
19.2500 13144.5866
19.2600 13747.9492
19.2700 13434.3930
19.2800 13200.8390
19.2900 13181.0546
19.3000 13638.8370
19.3100 13642.0214
19.3200 13074.3644
19.3300 12661.9288
19.3400 13414.6346
19.3500 12663.4350
19.3600 13377.5488
19.3700 13510.3108
19.3800 13843.0192
19.3900 12792.1224
19.4000 13360.6730
19.4100 13120.2164
19.4200 12918.8770
19.4300 13362.4366
19.4400 13059.0478
19.4500 12821.8230
19.4600 13192.9500
19.4700 13340.9164
19.4800 13040.7584
19.4900 12881.3420
19.5000 13514.2448
19.5100 12812.2990
19.5200 12762.6522
19.5300 12934.4288
19.5400 12928.3594
19.5500 13656.3850
19.5600 13180.6478
19.5700 12475.1482
19.5800 12573.0136
19.5900 13100.8724
19.6000 13291.8376
19.6100 13421.7074
19.6200 13235.1074
19.6300 13304.6778
19.6400 13666.9808
19.6500 13184.1594
19.6600 13079.2172
19.6700 13176.8660
19.6800 12968.9306
19.6900 12498.0160
19.7000 13331.7024
19.7100 13024.3002
19.7200 12685.8658
19.7300 12514.9096
19.7400 12907.0996
19.7500 12953.9786
19.7600 13124.0836
19.7700 13283.3992
19.7800 12764.7322
19.7900 12297.5634
19.8000 12742.3764
19.8100 12973.4050
19.8200 12905.8064
19.8300 12969.3766
19.8400 13142.9134
19.8500 13262.1298
19.8600 12700.8318
19.8700 12717.9216
19.8800 13177.6236
19.8900 13115.9888
19.9000 12667.1272
19.9100 12651.4812
19.9200 13216.8148
19.9300 12890.2002
19.9400 13226.7700
19.9500 13131.3518
19.9600 12547.5000
19.9700 12816.4022
19.9800 12297.8580
19.9900 12440.3450
20.0000 12558.3716
20.0100 12589.2440
20.0200 12953.3512
20.0300 12664.8584
20.0400 12088.9340
20.0500 12863.1152
20.0600 12547.9150
20.0700 12516.8798
20.0800 12648.7476
20.0900 12427.1752
20.1000 12778.0062
20.1100 13064.3188
20.1200 12522.2274
20.1300 12627.7262
20.1400 12478.0322
20.1500 12773.7566
20.1600 12801.6496
20.1700 12641.2728
20.1800 12419.2244
20.1900 12382.7328
20.2000 12686.9148
20.2100 12460.3190
20.2200 12789.5092
20.2300 12889.9480
20.2400 12506.2174
20.2500 12441.7244
20.2600 12426.4332
20.2700 12445.5014
20.2800 12376.1784
20.2900 12463.4424
20.3000 12324.6550
20.3100 12276.9498
20.3200 12195.7560
20.3300 12244.4002
20.3400 12129.9348
20.3500 12442.5806
20.3600 12702.9744
20.3700 12714.4344
20.3800 12018.8526
20.3900 12185.3434
20.4000 12687.1940
20.4100 12133.7346
20.4200 12310.4330
20.4300 12334.9756
20.4400 12197.6954
20.4500 12000.9130
20.4600 12138.6858
20.4700 12453.9640
20.4800 11846.9434
20.4900 12395.3158
20.5000 12343.6612
20.5100 12616.5096
20.5200 12321.8490
20.5300 12232.0736
20.5400 12159.1814
20.5500 12011.7668
20.5600 12615.4972
20.5700 12142.1484
20.5800 11978.7476
20.5900 12216.5870
20.6000 12534.2538
20.6100 12063.5986
20.6200 12096.1434
20.6300 11950.4192
20.6400 12164.3042
20.6500 12261.4592
20.6600 11682.8402
20.6700 11548.5694
20.6800 12607.2608
20.6900 12126.1816
20.7000 12444.5426
20.7100 12312.1712
20.7200 12525.9978
20.7300 11999.4434
20.7400 11710.1904
20.7500 12083.4838
20.7600 12243.7434
20.7700 12136.3078
20.7800 11729.9438
20.7900 11950.7486
20.8000 11799.4132
20.8100 12280.8870
20.8200 12124.8486
20.8300 11975.7520
20.8400 11950.0244
20.8500 12370.0602
20.8600 12249.6500
20.8700 12287.5936
20.8800 12055.5680
20.8900 11907.3064
20.9000 12002.3388
20.9100 12124.0706
20.9200 11843.6540
20.9300 11364.8308
20.9400 11888.8028
20.9500 12043.9558
20.9600 11965.5086
20.9700 11840.7390
20.9800 11615.4786
20.9900 12027.6888
21.0000 11839.5076
21.0100 11709.7722
21.0200 11802.2664
21.0300 11484.3660
21.0400 11862.5740
21.0500 11748.8224
21.0600 11737.9558
21.0700 11969.8478
21.0800 11493.2992
21.0900 11116.4046
21.1000 11730.9994
21.1100 11884.0520
21.1200 12034.6866
21.1300 12376.6846
21.1400 11656.7716
21.1500 11736.3924
21.1600 11712.4072
21.1700 11734.4662
21.1800 11445.0056
21.1900 11544.1260
21.2000 11666.6870
21.2100 11834.3448
21.2200 11630.7788
21.2300 11528.8964
21.2400 11231.9270
21.2500 12067.2518
21.2600 11830.0992
21.2700 11990.7910
21.2800 11417.7408
21.2900 11711.3648
21.3000 11864.9944
21.3100 11302.1094
21.3200 11841.6552
21.3300 11695.3964
21.3400 11319.6338
21.3500 11031.1068
21.3600 11475.8326
21.3700 11616.7790
21.3800 11921.0726
21.3900 11513.9656
21.4000 11724.6020
21.4100 12148.5132
21.4200 11568.1714
21.4300 11730.6494
21.4400 11738.1184
21.4500 11718.7516
21.4600 11803.8550
21.4700 11793.4262
21.4800 11092.5366
21.4900 11432.4496
21.5000 11469.7738
21.5100 11025.6950
21.5200 11907.4520
21.5300 11535.5298
21.5400 11508.1902
21.5500 11714.9268
21.5600 11241.6910
21.5700 11115.1278
21.5800 11601.5266
21.5900 11402.0036
21.6000 11211.5738
21.6100 11302.9622
21.6200 11340.4882
21.6300 11397.5424
21.6400 11510.3092
21.6500 11462.2338
21.6600 10819.7746
21.6700 11259.1936
21.6800 11036.9742
21.6900 11330.0180
21.7000 11166.1190
21.7100 11068.2398
21.7200 11361.7708
21.7300 11565.8056
21.7400 11409.8714
21.7500 11026.2338
21.7600 11370.9978
21.7700 11366.6008
21.7800 11717.8370
21.7900 11334.5792
21.8000 11374.7322
21.8100 11323.1982
21.8200 11295.9302
21.8300 11292.9296
21.8400 11283.8834
21.8500 11322.2566
21.8600 11478.6988
21.8700 11195.7674
21.8800 11191.9824
21.8900 10938.1884
21.9000 10886.3990
21.9100 10953.2300
21.9200 10778.6060
21.9300 10831.6398
21.9400 11193.3122
21.9500 11170.5444
21.9600 11186.6822
21.9700 11142.0012
21.9800 11116.4632
21.9900 11187.5212
22.0000 11162.2966
22.0100 11288.4880
22.0200 11545.4394
22.0300 11481.8376
22.0400 12040.2572
22.0500 11114.2976
22.0600 11452.9826
22.0700 11247.1980
22.0800 11433.3008
22.0900 11217.3926
22.1000 11032.5024
22.1100 11163.7540
22.1200 11364.2538
22.1300 11439.0144
22.1400 11207.2112
22.1500 11341.4168
22.1600 11555.2376
22.1700 11654.2626
22.1800 11551.2484
22.1900 11570.6534
22.2000 11446.4348
22.2100 12006.2622
22.2200 11667.8744
22.2300 11739.6306
22.2400 11325.4712
22.2500 11669.1154
22.2600 11783.5482
22.2700 11595.1334
22.2800 11858.6736
22.2900 11427.5652
22.3000 11315.2946
22.3100 11659.0300
22.3200 11351.9092
22.3300 11246.5698
22.3400 11694.6566
22.3500 10907.2908
22.3600 10858.9372
22.3700 11239.3204
22.3800 11495.7634
22.3900 11569.0894
22.4000 11290.2132
22.4100 11035.2458
22.4200 11028.9006
22.4300 11197.5610
22.4400 10706.8448
22.4500 10873.1438
22.4600 11224.1016
22.4700 11082.4902
22.4800 10901.7196
22.4900 10487.6692
22.5000 10733.5116
22.5100 10925.3344
22.5200 11091.2240
22.5300 10718.6906
22.5400 10704.9122
22.5500 11493.8582
22.5600 10714.5980
22.5700 11060.7976
22.5800 10543.2422
22.5900 10557.9688
22.6000 10683.4750
22.6100 10828.7492
22.6200 11111.8742
22.6300 10948.6980
22.6400 10287.9704
22.6500 10979.1682
22.6600 11389.0714
22.6700 10717.6318
22.6800 10546.9792
22.6900 10796.5512
22.7000 10739.4092
22.7100 10887.0264
22.7200 10501.7090
22.7300 10947.9900
22.7400 11231.7570
22.7500 10897.6928
22.7600 10628.0810
22.7700 10728.3138
22.7800 11034.0706
22.7900 10617.8834
22.8000 10705.8496
22.8100 10643.2682
22.8200 10372.4602
22.8300 10713.9078
22.8400 10545.0838
22.8500 10535.3842
22.8600 10715.7292
22.8700 10662.8776
22.8800 10438.8624
22.8900 10602.1842
22.9000 10122.5748
22.9100 9815.6438
22.9200 10343.5222
22.9300 10464.2758
22.9400 10399.8112
22.9500 10666.8612
22.9600 10328.1144
22.9700 10239.3408
22.9800 10016.6700
22.9900 10659.5516
23.0000 10453.6914
23.0100 10496.0792
23.0200 10587.9394
23.0300 10469.9512
23.0400 10615.3614
23.0500 10385.7040
23.0600 10388.0404
23.0700 10283.0566
23.0800 10262.1412
23.0900 10736.0580
23.1000 10160.4394
23.1100 10108.9672
23.1200 10108.1624
23.1300 10284.6672
23.1400 10441.8750
23.1500 10371.3640
23.1600 10801.4908
23.1700 10534.8242
23.1800 10077.4252
23.1900 9789.9382
23.2000 9795.5802
23.2100 10150.0740
23.2200 10025.7576
23.2300 10342.6708
23.2400 10070.6632
23.2500 10177.1892
23.2600 10497.5944
23.2700 9959.0276
23.2800 10219.5930
23.2900 9997.8654
23.3000 10079.4092
23.3100 10329.9284
23.3200 10675.3134
23.3300 9975.6168
23.3400 10445.5834
23.3500 10139.4734
23.3600 9954.7738
23.3700 10143.2504
23.3800 10015.2108
23.3900 10041.1076
23.4000 10049.6550
23.4100 10128.9022
23.4200 10075.7504
23.4300 10304.7160
23.4400 10336.0580
23.4500 10180.9904
23.4600 10144.3066
23.4700 9840.1196
23.4800 9731.4648
23.4900 10085.9978
23.5000 10220.4134
23.5100 10253.9568
23.5200 10078.9934
23.5300 9625.6714
23.5400 9916.8864
23.5500 10676.7644
23.5600 10034.3400
23.5700 9874.4864
23.5800 9462.4568
23.5900 9921.8694
23.6000 10167.9874
23.6100 9663.7516
23.6200 10109.6988
23.6300 9885.6438
23.6400 9813.2618
23.6500 10084.5232
23.6600 9884.2692
23.6700 9928.6516
23.6800 10077.9314
23.6900 9763.8126
23.7000 10013.1104
23.7100 9816.7920
23.7200 9597.6596
23.7300 9624.6354
23.7400 9732.7254
23.7500 9939.3238
23.7600 10184.5834
23.7700 9857.7294
23.7800 9651.0458
23.7900 10110.3500
23.8000 9915.9538
23.8100 10111.5984
23.8200 10340.7600
23.8300 9646.2882
23.8400 10109.3294
23.8500 9653.2610
23.8600 9699.2440
23.8700 9833.7304
23.8800 9870.5510
23.8900 9381.7838
23.9000 10026.1108
23.9100 9918.5132
23.9200 9516.9978
23.9300 9836.7432
23.9400 9543.8012
23.9500 9691.7774
23.9600 9680.5762
23.9700 9706.5096
23.9800 9716.2264
23.9900 9555.6242
24.0000 9682.7312
24.0100 9657.8426
24.0200 9758.0086
24.0300 9609.8820
24.0400 9636.6210
24.0500 9608.0574
24.0600 9175.9994
24.0700 9741.6300
24.0800 9935.4826
24.0900 9660.2450
24.1000 9775.7032
24.1100 9718.8794
24.1200 9773.6312
24.1300 9653.3130
24.1400 9774.6468
24.1500 9457.1752
24.1600 9648.6540
24.1700 9882.3210
24.1800 9570.3352
24.1900 9144.3302
24.2000 9587.9550
24.2100 9796.8798
24.2200 9284.1870
24.2300 9495.1000
24.2400 9757.7726
24.2500 9923.4612
24.2600 9574.8674
24.2700 10120.3134
24.2800 9620.8740
24.2900 9664.6516
24.3000 9422.6082
24.3100 9276.7692
24.3200 9291.1596
24.3300 9796.1198
24.3400 9482.5774
24.3500 9640.2312
24.3600 9378.1998
24.3700 9210.1546
24.3800 9535.9188
24.3900 9859.2806
24.4000 9107.6530
24.4100 9379.8544
24.4200 9597.2566
24.4300 9264.9008
24.4400 9745.0464
24.4500 9691.9882
24.4600 9502.3608
24.4700 9203.4034
24.4800 9271.0750
24.4900 9625.6778
24.5000 9419.3498
24.5100 9338.0184
24.5200 9497.2436
24.5300 9489.2416
24.5400 9331.9174
24.5500 9473.3318
24.5600 9472.8728
24.5700 9190.3710
24.5800 9597.6742
24.5900 9961.4794
24.6000 9547.9264
24.6100 8995.7308
24.6200 9350.1140
24.6300 9143.7288
24.6400 9372.1468
24.6500 9359.3254
24.6600 9576.7944
24.6700 9619.2464
24.6800 9401.1500
24.6900 9693.7320
24.7000 9699.8486
24.7100 9395.2400
24.7200 9242.6506
24.7300 9445.6730
24.7400 9755.3598
24.7500 9457.9070
24.7600 9043.6540
24.7700 9377.5268
24.7800 9123.7834
24.7900 9362.3446
24.8000 9222.7076
24.8100 9601.3200
24.8200 9949.9796
24.8300 9196.7456
24.8400 9041.8660
24.8500 9635.9848
24.8600 9437.3666
24.8700 8841.7448
24.8800 9183.2210
24.8900 9296.7326
24.9000 9123.9038
24.9100 9254.7868
24.9200 9032.5406
24.9300 9367.7434
24.9400 9033.8566
24.9500 8785.3230
24.9600 9250.5346
24.9700 9017.4324
24.9800 8902.3608
24.9900 9083.7866
25.0000 9336.1980
25.0100 8973.7484
25.0200 9030.1620
25.0300 9028.6418
25.0400 9140.5298
25.0500 9120.5590
25.0600 9144.6158
25.0700 9025.1172
25.0800 9104.2912
25.0900 8876.6406
25.1000 8807.0678
25.1100 9250.6852
25.1200 8812.8442
25.1300 8994.8926
25.1400 9107.4528
25.1500 8944.4140
25.1600 9207.2094
25.1700 9030.8048
25.1800 9282.7034
25.1900 9502.0222
25.2000 9007.6668
25.2100 9391.8042
25.2200 8643.9860
25.2300 9099.8886
25.2400 9203.4408
25.2500 9293.1844
25.2600 8977.6310
25.2700 8848.0054
25.2800 9182.6360
25.2900 8909.7518
25.3000 9501.7374
25.3100 9232.0426
25.3200 8933.1120
25.3300 9422.7678
25.3400 9235.8464
25.3500 9042.9890
25.3600 9235.1790
25.3700 9432.4348
25.3800 9211.8188
25.3900 8679.5378
25.4000 8863.2104
25.4100 9316.0546
25.4200 9016.5934
25.4300 9019.3050
25.4400 9203.0200
25.4500 9221.1060
25.4600 8810.1326
25.4700 8961.7554
25.4800 8985.4240
25.4900 9098.8176
25.5000 8753.8314
25.5100 8877.1338
25.5200 8641.0774
25.5300 9096.1996
25.5400 9218.1054
25.5500 8762.2298
25.5600 8690.9302
25.5700 8840.8952
25.5800 8375.5152
25.5900 8587.9638
25.6000 8774.3124
25.6100 8758.5336
25.6200 9086.6098
25.6300 8922.0484
25.6400 9218.6296
25.6500 9001.8180
25.6600 9252.1622
25.6700 8874.0022
25.6800 8855.2344
25.6900 8978.6386
25.7000 8809.7820
25.7100 9044.1186
25.7200 8857.0174
25.7300 9135.2514
25.7400 9025.4460
25.7500 8839.5012
25.7600 8774.3458
25.7700 8831.5152
25.7800 9015.1262
25.7900 8877.5170
25.8000 9172.4406
25.8100 8534.9422
25.8200 8710.5884
25.8300 8737.7662
25.8400 8546.3972
25.8500 8740.7666
25.8600 8714.4726
25.8700 8869.2252
25.8800 9369.3734
25.8900 9098.5864
25.9000 8682.3136
25.9100 8711.5056
25.9200 8730.9008
25.9300 8519.2374
25.9400 8411.1352
25.9500 8704.1284
25.9600 8584.2154
25.9700 8793.8362
25.9800 8554.7306
25.9900 8602.4886
26.0000 9229.1536
26.0100 8431.0904
26.0200 8794.9984
26.0300 8712.5488
26.0400 8330.5712
26.0500 8503.1062
26.0600 8874.7380
26.0700 9053.4838
26.0800 8986.8986
26.0900 8776.9882
26.1000 8837.6456
26.1100 8851.9278
26.1200 8855.1082
26.1300 8709.0170
26.1400 8383.1372
26.1500 8448.2992
26.1600 8865.5070
26.1700 9087.0834
26.1800 8622.6978
26.1900 8376.0432
26.2000 8667.8426
26.2100 8706.3282
26.2200 8849.8958
26.2300 8621.3298
26.2400 8820.5494
26.2500 8654.4368
26.2600 8634.8388
26.2700 8613.4978
26.2800 8360.4346
26.2900 8728.5604
26.3000 8832.9606
26.3100 8823.8810
26.3200 8571.6316
26.3300 8607.8710
26.3400 8721.9148
26.3500 8595.4646
26.3600 9015.5372
26.3700 8740.1798
26.3800 9132.0556
26.3900 8707.3796
26.4000 8244.4174
26.4100 8326.2508
26.4200 8598.3912
26.4300 8666.9938
26.4400 8908.8078
26.4500 8358.7874
26.4600 8455.9652
26.4700 8551.6634
26.4800 8729.3066
26.4900 8605.9774
26.5000 7984.6704
26.5100 8589.2626
26.5200 8372.0712
26.5300 8278.4716
26.5400 8549.0714
26.5500 8607.7092
26.5600 8305.1262
26.5700 8606.1458
26.5800 8648.7460
26.5900 8516.6658
26.6000 8178.3398
26.6100 8365.4890
26.6200 8310.9660
26.6300 8126.7806
26.6400 8796.7862
26.6500 8219.5328
26.6600 8548.9486
26.6700 8166.2890
26.6800 8459.0576
26.6900 8256.1264
26.7000 8732.4088
26.7100 8700.0846
26.7200 8321.2386
26.7300 8538.8868
26.7400 8474.1520
26.7500 8515.7486
26.7600 8293.4058
26.7700 8035.1962
26.7800 8148.9738
26.7900 8133.0054
26.8000 8336.1036
26.8100 8246.4176
26.8200 8644.1700
26.8300 8113.2772
26.8400 8246.6878
26.8500 7941.4494
26.8600 8263.7630
26.8700 8495.1806
26.8800 7933.7060
26.8900 8186.9580
26.9000 8202.3820
26.9100 7959.2586
26.9200 8417.5708
26.9300 8236.0864
26.9400 8227.5716
26.9500 7862.0036
26.9600 7995.6404
26.9700 8260.7154
26.9800 8468.0118
26.9900 8354.1414
27.0000 8228.7948
27.0100 8407.1932
27.0200 7670.7748
27.0300 8384.7836
27.0400 8001.1792
27.0500 8282.5448
27.0600 8087.0450
27.0700 8068.4692
27.0800 8406.4966
27.0900 8141.5844
27.1000 7812.9744
27.1100 8272.2640
27.1200 8181.3746
27.1300 8123.7060
27.1400 8161.7546
27.1500 7931.6178
27.1600 7875.9994
27.1700 8049.2920
27.1800 8276.9320
27.1900 8058.5156
27.2000 8445.5916
27.2100 8008.3920
27.2200 8186.8538
27.2300 7882.1818
27.2400 7832.5008
27.2500 8082.8378
27.2600 8126.0546
27.2700 8035.5680
27.2800 8138.1998
27.2900 8442.9704
27.3000 8411.2216
27.3100 8076.0522
27.3200 8499.1350
27.3300 8136.5862
27.3400 8098.6140
27.3500 7949.1472
27.3600 8196.9214
27.3700 8375.6234
27.3800 7985.6446
27.3900 8069.2146
27.4000 7736.0148
27.4100 8230.5486
27.4200 7918.3976
27.4300 8007.6766
27.4400 8187.6970
27.4500 8115.5656
27.4600 8387.3404
27.4700 8143.3912
27.4800 7979.6606
27.4900 7982.3486
27.5000 8072.2616
27.5100 7649.9886
27.5200 8156.8352
27.5300 7948.9990
27.5400 7830.0642
27.5500 8190.4354
27.5600 8514.3474
27.5700 8130.6608
27.5800 8264.7144
27.5900 8059.5678
27.6000 8381.6186
27.6100 8332.9150
27.6200 8240.4020
27.6300 8173.1990
27.6400 8349.6696
27.6500 8064.5280
27.6600 8117.7758
27.6700 7823.1982
27.6800 8212.7084
27.6900 8272.8532
27.7000 7884.2530
27.7100 8060.9074
27.7200 7901.9970
27.7300 8440.9952
27.7400 7903.1470
27.7500 8133.7174
27.7600 8075.6454
27.7700 8093.5148
27.7800 7862.8474
27.7900 8171.5756
27.8000 7880.8544
27.8100 8137.8914
27.8200 8293.2836
27.8300 7992.4748
27.8400 8198.9698
27.8500 8517.2844
27.8600 7937.8906
27.8700 7889.9480
27.8800 7803.1770
27.8900 7974.7966
27.9000 8004.5386
27.9100 7830.1384
27.9200 8173.5320
27.9300 8052.6570
27.9400 7835.1570
27.9500 8078.1356
27.9600 8143.3342
27.9700 8243.9934
27.9800 8286.0686
27.9900 7542.4210
28.0000 7763.5254
28.0100 7977.6010
28.0200 7878.2812
28.0300 7655.9244
28.0400 7801.8188
28.0500 8193.4814
28.0600 8052.8598
28.0700 8273.5066
28.0800 8376.6560
28.0900 8025.5054
28.1000 7667.0678
28.1100 7905.2540
28.1200 7840.8748
28.1300 8196.4266
28.1400 7932.5188
28.1500 7980.3320
28.1600 7890.4192
28.1700 7881.7660
28.1800 7662.5838
28.1900 8407.4504
28.2000 7994.4596
28.2100 7843.9096
28.2200 7860.8122
28.2300 8413.7598
28.2400 7773.4448
28.2500 8127.1656
28.2600 7750.2498
28.2700 7943.3024
28.2800 7663.7288
28.2900 7936.5584
28.3000 8077.2224
28.3100 8107.5546
28.3200 8048.8956
28.3300 7700.8944
28.3400 7746.6708
28.3500 7890.2612
28.3600 7820.5184
28.3700 8023.9714
28.3800 7854.2504
28.3900 8420.2930
28.4000 8106.4738
28.4100 8177.0304
28.4200 7970.2540
28.4300 8078.9510
28.4400 7818.4708
28.4500 7903.4408
28.4600 8158.8248
28.4700 7979.0398
28.4800 8142.5106
28.4900 8287.4952
28.5000 8633.4000
28.5100 8120.4566
28.5200 8168.0428
28.5300 8207.8060
28.5400 8344.8218
28.5500 7976.3232
28.5600 8378.0086
28.5700 8171.0188
28.5800 8026.1710
28.5900 7975.9204
28.6000 8163.7320
28.6100 7826.3404
28.6200 8264.5582
28.6300 8258.2080
28.6400 8355.9602
28.6500 8544.5004
28.6600 7982.2306
28.6700 8188.1534
28.6800 8043.3204
28.6900 7911.8604
28.7000 7895.0944
28.7100 7970.5704
28.7200 8052.1516
28.7300 7878.6816
28.7400 7980.8440
28.7500 7920.9114
28.7600 7813.9828
28.7700 7847.2648
28.7800 7793.8510
28.7900 7716.5958
28.8000 8183.7890
28.8100 7549.7200
28.8200 7963.9266
28.8300 7831.1166
28.8400 7525.1848
28.8500 7650.9742
28.8600 7801.0442
28.8700 7576.9840
28.8800 7916.8270
28.8900 7736.0108
28.9000 7827.7328
28.9100 7690.6306
28.9200 7538.1820
28.9300 7770.1026
28.9400 7666.2622
28.9500 7683.8802
28.9600 7547.2348
28.9700 7478.1290
28.9800 7567.6888
28.9900 7720.7170
29.0000 7838.6686
29.0100 7514.7550
29.0200 7699.3262
29.0300 7567.7938
29.0400 7972.2696
29.0500 7780.5632
29.0600 7781.6772
29.0700 7700.4826
29.0800 7821.1044
29.0900 7851.2426
29.1000 7944.7836
29.1100 7923.4530
29.1200 7795.5306
29.1300 7755.0774
29.1400 7679.6892
29.1500 7603.3886
29.1600 7698.0844
29.1700 7601.3200
29.1800 7527.2428
29.1900 7448.5368
29.2000 7752.4178
29.2100 7638.1804
29.2200 7713.8420
29.2300 7535.8838
29.2400 7602.4340
29.2500 7563.4228
29.2600 7484.0502
29.2700 7958.6190
29.2800 7514.6070
29.2900 7557.2608
29.3000 7483.3602
29.3100 7888.8192
29.3200 7682.3072
29.3300 7487.3860
29.3400 7788.4082
29.3500 7440.8308
29.3600 7361.1638
29.3700 7367.7938
29.3800 7314.4864
29.3900 7757.2592
29.4000 7876.2614
29.4100 7659.4882
29.4200 7339.3018
29.4300 7401.8490
29.4400 7798.0542
29.4500 7785.4810
29.4600 7373.2934
29.4700 7624.7566
29.4800 7540.7040
29.4900 7540.2808
29.5000 7384.2986
29.5100 7247.3942
29.5200 7571.9678
29.5300 8089.4132
29.5400 7336.7692
29.5500 7417.5652
29.5600 7576.5356
29.5700 7459.8682
29.5800 8063.6222
29.5900 7247.8752
29.6000 7565.1676
29.6100 7794.8632
29.6200 7412.6628
29.6300 7514.9008
29.6400 7747.5066
29.6500 7390.9148
29.6600 7193.2382
29.6700 7340.4036
29.6800 7253.5686
29.6900 7395.2076
29.7000 7644.7892
29.7100 7990.1424
29.7200 7479.1446
29.7300 7603.9380
29.7400 7726.5040
29.7500 6986.9426
29.7600 7424.0926
29.7700 7532.8548
29.7800 7327.7042
29.7900 7547.6432
29.8000 7531.2076
29.8100 7804.5744
29.8200 7495.8544
29.8300 7757.3332
29.8400 7414.8836
29.8500 7658.8070
29.8600 7290.5486
29.8700 7555.6096
29.8800 7379.4612
29.8900 7638.4114
29.9000 7413.7126
29.9100 7481.8742
29.9200 7544.2602
29.9300 7471.8824
29.9400 7231.4364
29.9500 7604.4034
29.9600 7583.4456
29.9700 7631.2826
29.9800 7363.5042
29.9900 7688.1722
30.0000 7470.7942
30.0100 7819.9462
30.0200 7266.5128
30.0300 7486.9198
30.0400 7346.0758
30.0500 7219.0210
30.0600 7052.3234
30.0700 7381.1832
30.0800 7420.7584
30.0900 7481.1442
30.1000 7274.2522
30.1100 7524.1918
30.1200 7360.0782
30.1300 7302.1460
30.1400 7044.7306
30.1500 7489.1154
30.1600 7709.0250
30.1700 7418.9722
30.1800 7102.1492
30.1900 7436.0116
30.2000 7713.5904
30.2100 7264.7388
30.2200 7369.8918
30.2300 7548.7338
30.2400 7493.6442
30.2500 7518.9314
30.2600 7612.1786
30.2700 7448.7304
30.2800 7335.9252
30.2900 7631.0856
30.3000 7828.6588
30.3100 7567.8720
30.3200 7505.3702
30.3300 7270.7764
30.3400 7702.4226
30.3500 7477.6970
30.3600 8078.5750
30.3700 7609.3750
30.3800 7390.7234
30.3900 7705.8764
30.4000 7876.8896
30.4100 7551.7334
30.4200 7519.5988
30.4300 7343.5734
30.4400 7604.0836
30.4500 7566.3444
30.4600 7466.6088
30.4700 7734.4320
30.4800 8072.3674
30.4900 7687.9224
30.5000 7154.1504
30.5100 7383.6906
30.5200 8066.8986
30.5300 7431.5934
30.5400 7539.4670
30.5500 7565.6144
30.5600 7677.4886
30.5700 7920.3378
30.5800 7779.0788
30.5900 7710.9302
30.6000 7366.7618
30.6100 7359.8754
30.6200 7649.7950
30.6300 7474.1480
30.6400 7823.8282
30.6500 7944.3400
30.6600 7862.4104
30.6700 7399.6036
30.6800 7640.7544
30.6900 7287.3104
30.7000 7381.1272
30.7100 7672.4488
30.7200 8060.4680
30.7300 7885.1156
30.7400 7783.5514
30.7500 7617.0370
30.7600 7987.1314
30.7700 7921.1988
30.7800 7557.5488
30.7900 7359.9854
30.8000 7881.9556
30.8100 7834.4856
30.8200 8267.2820
30.8300 8042.8036
30.8400 7354.0828
30.8500 7676.1612
30.8600 7772.1508
30.8700 7940.6804
30.8800 7852.0800
30.8900 8550.6942
30.9000 7818.6882
30.9100 8033.6524
30.9200 8090.0146
30.9300 7792.6708
30.9400 8221.3550
30.9500 8384.5808
30.9600 8063.4700
30.9700 8815.4150
30.9800 8374.8494
30.9900 8182.5692
31.0000 8519.8510
31.0100 8749.8576
31.0200 8653.2250
31.0300 8824.8194
31.0400 9046.5454
31.0500 8825.7576
31.0600 9024.3816
31.0700 9145.9106
31.0800 8892.1232
31.0900 9429.2008
31.1000 8871.2776
31.1100 9326.5820
31.1200 9477.4170
31.1300 9219.7364
31.1400 9376.1158
31.1500 9167.1184
31.1600 9302.5074
31.1700 9909.3156
31.1800 9454.5914
31.1900 9456.8962
31.2000 9459.7038
31.2100 9619.2400
31.2200 9524.8536
31.2300 8951.5478
31.2400 9051.3370
31.2500 9009.6924
31.2600 9099.6256
31.2700 9301.1246
31.2800 9229.2456
31.2900 9589.3124
31.3000 9334.1910
31.3100 8990.9920
31.3200 9136.8368
31.3300 9158.9542
31.3400 9103.7492
31.3500 8789.8990
31.3600 9339.4514
31.3700 9233.3854
31.3800 8989.2074
31.3900 9943.2194
31.4000 9195.0098
31.4100 10120.8228
31.4200 10071.0824
31.4300 9971.1662
31.4400 10539.6386
31.4500 10973.9404
31.4600 11009.9048
31.4700 10939.0308
31.4800 11451.0222
31.4900 11812.6628
31.5000 12559.4052
31.5100 12892.9582
31.5200 13882.3160
31.5300 14276.1604
31.5400 14453.8004
31.5500 15304.2448
31.5600 16806.8116
31.5700 17607.5504
31.5800 18332.4512
31.5900 19042.7344
31.6000 20293.7988
31.6100 20690.5014
31.6200 22302.3812
31.6300 23345.3630
31.6400 25067.8466
31.6500 26093.0924
31.6600 27369.3946
31.6700 27953.1966
31.6800 28661.4812
31.6900 30771.8652
31.7000 31016.2696
31.7100 32148.0176
31.7200 33776.6472
31.7300 33618.7110
31.7400 33884.1080
31.7500 35984.4986
31.7600 35936.1490
31.7700 36321.7872
31.7800 36318.3626
31.7900 35848.8932
31.8000 36148.6718
31.8100 37394.1992
31.8200 36859.2546
31.8300 36248.7012
31.8400 35730.2636
31.8500 34707.2558
31.8600 33529.6126
31.8700 33382.6888
31.8800 31916.1100
31.8900 30438.7988
31.9000 29556.1458
31.9100 28520.6576
31.9200 26895.7210
31.9300 25921.6162
31.9400 24507.8564
31.9500 22996.3396
31.9600 21655.1986
31.9700 20257.9574
31.9800 18470.7014
31.9900 17664.5280
32.0000 16562.3112
32.0100 15341.3868
32.0200 14306.6194
32.0300 13176.3868
32.0400 12506.7212
32.0500 11703.9396
32.0600 11229.7990
32.0700 10713.3244
32.0800 10365.1880
32.0900 10112.6506
32.1000 9565.2010
32.1100 9657.3120
32.1200 9330.6202
32.1300 9077.5748
32.1400 8450.4924
32.1500 8416.1222
32.1600 8323.1892
32.1700 8353.5320
32.1800 8179.8340
32.1900 8225.7006
32.2000 7938.5580
32.2100 7967.6994
32.2200 8022.1932
32.2300 8082.1988
32.2400 8017.5594
32.2500 7508.8802
32.2600 7723.3578
32.2700 7827.1924
32.2800 8087.6026
32.2900 7688.7232
32.3000 7530.4288
32.3100 7819.5110
32.3200 7265.1464
32.3300 7541.0188
32.3400 7575.5916
32.3500 7542.5554
32.3600 7647.9386
32.3700 7564.3628
32.3800 7595.2018
32.3900 7872.7084
32.4000 7358.7248
32.4100 7466.5170
32.4200 7447.1940
32.4300 7420.5966
32.4400 7422.8378
32.4500 7464.5572
32.4600 7495.8098
32.4700 7060.4622
32.4800 7152.8630
32.4900 7356.3142
32.5000 7603.6320
32.5100 7493.5808
32.5200 7598.2374
32.5300 7415.8960
32.5400 7180.1904
32.5500 7439.2952
32.5600 7516.5902
32.5700 7104.9724
32.5800 7023.8850
32.5900 7298.5188
32.6000 7378.0900
32.6100 7353.7548
32.6200 7168.6882
32.6300 7544.2074
32.6400 7265.9644
32.6500 7187.2282
32.6600 7330.9196
32.6700 7586.6552
32.6800 7294.4760
32.6900 7604.7102
32.7000 7324.9886
32.7100 7179.1438
32.7200 7172.1166
32.7300 7472.7670
32.7400 7179.6736
32.7500 7135.7210
32.7600 7387.4146
32.7700 7398.2284
32.7800 7198.1958
32.7900 7073.9348
32.8000 6992.2558
32.8100 7057.5098
32.8200 7103.3178
32.8300 7390.2636
32.8400 7555.7324
32.8500 7348.9250
32.8600 7151.7366
32.8700 7151.2532
32.8800 7151.4812
32.8900 7058.4936
32.9000 7449.1202
32.9100 7329.6394
32.9200 7364.5572
32.9300 7062.1232
32.9400 7137.0028
32.9500 6987.1248
32.9600 7188.3350
32.9700 7442.8638
32.9800 6905.5022
32.9900 7014.0462
33.0000 7356.4982
33.0100 6830.9742
33.0200 7298.1080
33.0300 7107.0548
33.0400 7201.7114
33.0500 7289.8926
33.0600 7147.2322
33.0700 6902.6628
33.0800 6789.6464
33.0900 6942.9060
33.1000 7085.1798
33.1100 7095.6446
33.1200 7429.2188
33.1300 7146.9034
33.1400 7104.7022
33.1500 7214.6900
33.1600 7121.9564
33.1700 7117.9654
33.1800 6708.6332
33.1900 7408.7444
33.2000 7091.3248
33.2100 6779.6638
33.2200 7057.4658
33.2300 7299.6394
33.2400 7332.0222
33.2500 6797.2188
33.2600 7094.0178
33.2700 6921.6708
33.2800 7171.5162
33.2900 7668.0250
33.3000 7007.3104
33.3100 6925.5608
33.3200 7032.0134
33.3300 6878.4366
33.3400 7085.6812
33.3500 7377.8964
33.3600 7020.6446
33.3700 7093.2194
33.3800 7071.1222
33.3900 7401.7032
33.4000 7267.6774
33.4100 7486.9604
33.4200 7245.4768
33.4300 7097.2810
33.4400 7268.1754
33.4500 7070.4272
33.4600 6935.5966
33.4700 6743.9132
33.4800 6992.3510
33.4900 7143.6238
33.5000 7370.4712
33.5100 7257.4772
33.5200 7084.3538
33.5300 7248.0534
33.5400 6962.0784
33.5500 7034.8234
33.5600 7074.2278
33.5700 6973.5522
33.5800 7529.5694
33.5900 7275.5046
33.6000 6923.6792
33.6100 7132.6498
33.6200 7206.3192
33.6300 6723.8028
33.6400 6968.2308
33.6500 6853.7426
33.6600 6641.9702
33.6700 7116.8466
33.6800 7046.9214
33.6900 7150.5754
33.7000 7152.9672
33.7100 7440.9936
33.7200 6801.6898
33.7300 6917.5398
33.7400 7369.0706
33.7500 7196.8164
33.7600 6865.2384
33.7700 6852.4146
33.7800 6711.4054
33.7900 6824.7998
33.8000 6963.5750
33.8100 7184.6142
33.8200 7243.7964
33.8300 7368.5084
33.8400 6984.4922
33.8500 7339.0340
33.8600 7468.3780
33.8700 7065.9644
33.8800 7355.4232
33.8900 7026.4218
33.9000 6951.9572
33.9100 7104.7460
33.9200 7097.6742
33.9300 6918.8126
33.9400 6793.4586
33.9500 6842.7164
33.9600 7232.7766
33.9700 7356.2312
33.9800 7266.9010
33.9900 7261.0246
34.0000 7174.5516
34.0100 6902.0118
34.0200 7409.5582
34.0300 7185.9286
34.0400 6895.4802
34.0500 7054.0910
34.0600 6837.2746
34.0700 7083.2934
34.0800 6956.6570
34.0900 6961.1686
34.1000 6852.3112
34.1100 6918.6002
34.1200 7132.7206
34.1300 6822.3418
34.1400 6827.4618
34.1500 6817.6826
34.1600 6896.4192
34.1700 6921.6308
34.1800 7181.4226
34.1900 7246.5356
34.2000 6905.5712
34.2100 6720.5464
34.2200 6737.3662
34.2300 6708.0400
34.2400 6882.8304
34.2500 6928.3456
34.2600 6886.8010
34.2700 6923.4342
34.2800 6687.9508
34.2900 7055.5868
34.3000 7015.9270
34.3100 6961.3614
34.3200 6880.2132
34.3300 7065.4280
34.3400 6665.3890
34.3500 7003.2926
34.3600 6686.0542
34.3700 6892.7750
34.3800 7074.4198
34.3900 6901.7668
34.4000 6966.0124
34.4100 7037.6384
34.4200 7221.2418
34.4300 7257.3202
34.4400 6977.1622
34.4500 7328.8664
34.4600 7161.7050
34.4700 7078.8102
34.4800 6751.2102
34.4900 6970.2058
34.5000 6967.6758
34.5100 6932.6904
34.5200 6554.0194
34.5300 6532.4606
34.5400 6719.6534
34.5500 6850.6136
34.5600 6710.5864
34.5700 7078.0948
34.5800 7175.1188
34.5900 6877.3844
34.6000 6549.6004
34.6100 7238.2610
34.6200 7124.4230
34.6300 6986.0946
34.6400 6826.5536
34.6500 7004.7924
34.6600 7055.1392
34.6700 6954.9024
34.6800 7048.6702
34.6900 7089.7224
34.7000 6816.2634
34.7100 7527.6848
34.7200 7057.4496
34.7300 6732.8760
34.7400 6974.9584
34.7500 6794.9772
34.7600 7026.5120
34.7700 6846.0074
34.7800 7061.1760
34.7900 7091.7504
34.8000 6772.2054
34.8100 6847.5642
34.8200 6976.7366
34.8300 6902.4226
34.8400 7203.3724
34.8500 6922.4674
34.8600 6642.3494
34.8700 7288.5498
34.8800 7006.3778
34.8900 7108.4310
34.9000 6833.8346
34.9100 6628.8428
34.9200 7118.6418
34.9300 6933.6132
34.9400 6995.0146
34.9500 6782.4568
34.9600 7372.3186
34.9700 6799.3600
34.9800 6824.4006
34.9900 6688.7920
35.0000 6877.7458
35.0100 6787.7754
35.0200 7148.8322
35.0300 6836.0888
35.0400 7087.8450
35.0500 6772.9912
35.0600 6975.4900
35.0700 6871.7888
35.0800 6535.9464
35.0900 7196.8196
35.1000 7141.2964
35.1100 7203.5050
35.1200 6865.7756
35.1300 7052.1192
35.1400 6845.2824
35.1500 6831.9246
35.1600 6934.1220
35.1700 6930.0692
35.1800 6485.9436
35.1900 7198.3064
35.2000 7051.8148
35.2100 6748.7956
35.2200 7100.1124
35.2300 7054.6908
35.2400 6568.8476
35.2500 6550.4488
35.2600 6884.4686
35.2700 6899.6516
35.2800 6707.8532
35.2900 6833.5246
35.3000 7121.4558
35.3100 7367.2330
35.3200 6702.7914
35.3300 6955.4476
35.3400 6832.6936
35.3500 6924.3986
35.3600 7113.2454
35.3700 6681.9088
35.3800 7220.6038
35.3900 6653.4204
35.4000 7095.3002
35.4100 7260.4988
35.4200 6770.2596
35.4300 6949.8934
35.4400 6871.5292
35.4500 6974.0698
35.4600 6866.0766
35.4700 7167.8720
35.4800 6745.4158
35.4900 6872.9012
35.5000 6931.2744
35.5100 7018.6010
35.5200 6760.0688
35.5300 7032.7766
35.5400 6845.0448
35.5500 7088.3536
35.5600 6792.7522
35.5700 7014.5572
35.5800 6981.0530
35.5900 7225.3370
35.6000 7016.9726
35.6100 6844.3636
35.6200 6977.1622
35.6300 6893.9616
35.6400 7015.7910
35.6500 6699.7116
35.6600 6563.9096
35.6700 6488.5270
35.6800 7053.5904
35.6900 7296.0970
35.7000 6797.0748
35.7100 6749.3164
35.7200 6848.1120
35.7300 6930.6860
35.7400 6987.7832
35.7500 7185.5924
35.7600 7001.9604
35.7700 7240.4370
35.7800 7004.1732
35.7900 6859.4832
35.8000 6940.3230
35.8100 6999.9854
35.8200 7248.8420
35.8300 6888.3464
35.8400 7001.8058
35.8500 6803.6634
35.8600 6754.2366
35.8700 6705.3858
35.8800 6837.1280
35.8900 6579.1118
35.9000 6653.1506
35.9100 6775.2430
35.9200 6926.5088
35.9300 6546.3806
35.9400 7146.8872
35.9500 6837.8996
35.9600 6695.1140
35.9700 6815.9306
35.9800 6996.8018
35.9900 7093.9592
36.0000 6997.7938
36.0100 6907.1492
36.0200 6850.3720
36.0300 6716.9372
36.0400 6842.7758
36.0500 7007.8304
36.0600 6566.7972
36.0700 6709.6500
36.0800 6808.6690
36.0900 6761.0690
36.1000 6673.9214
36.1100 6709.3570
36.1200 6705.7500
36.1300 6723.5836
36.1400 6461.3522
36.1500 6860.9278
36.1600 7165.9660
36.1700 6920.7218
36.1800 6879.5134
36.1900 7093.1788
36.2000 6998.5092
36.2100 6855.5200
36.2200 6877.7026
36.2300 6844.9934
36.2400 6814.0174
36.2500 6630.2808
36.2600 6564.6028
36.2700 6767.8406
36.2800 6995.3800
36.2900 7369.1634
36.3000 6930.0284
36.3100 7052.0784
36.3200 6890.8798
36.3300 6802.6034
36.3400 6902.2282
36.3500 7200.8544
36.3600 6942.9574
36.3700 6784.2956
36.3800 6851.8416
36.3900 6834.6598
36.4000 6786.7858
36.4100 6915.5574
36.4200 6286.8742
36.4300 6671.9340
36.4400 7257.7116
36.4500 7320.7210
36.4600 6913.6368
36.4700 7113.6760
36.4800 7063.5896
36.4900 7024.1334
36.5000 6878.8574
36.5100 6803.7084
36.5200 6894.9716
36.5300 7032.8996
36.5400 7081.7366
36.5500 7080.9774
36.5600 7167.7784
36.5700 6994.2976
36.5800 7033.5840
36.5900 7062.1704
36.6000 7072.3202
36.6100 6742.5806
36.6200 6858.5010
36.6300 6556.0664
36.6400 6969.4564
36.6500 6931.2874
36.6600 6767.2526
36.6700 6796.8938
36.6800 6905.9294
36.6900 6929.2488
36.7000 6947.7026
36.7100 6980.3580
36.7200 6906.1084
36.7300 6916.8310
36.7400 7136.2988
36.7500 7046.6846
36.7600 6828.5246
36.7700 7036.3924
36.7800 6679.0878
36.7900 6865.2304
36.8000 6974.2456
36.8100 6694.5346
36.8200 6904.0316
36.8300 6640.0378
36.8400 7190.0634
36.8500 7125.8976
36.8600 7141.3720
36.8700 6852.9296
36.8800 6440.5566
36.8900 6989.0014
36.9000 6616.9166
36.9100 7164.7420
36.9200 7107.0842
36.9300 6875.0562
36.9400 7022.3226
36.9500 7065.3012
36.9600 7025.0390
36.9700 7165.8212
36.9800 6651.6610
36.9900 6594.5504
37.0000 6584.9104
37.0100 6846.0702
37.0200 7111.5380
37.0300 6806.0160
37.0400 6968.3178
37.0500 6524.9662
37.0600 6607.3442
37.0700 7057.1306
37.0800 6998.7198
37.0900 7151.2312
37.1000 6951.6056
37.1100 7030.1880
37.1200 7097.2608
37.1300 6864.4816
37.1400 6915.4256
37.1500 6792.6648
37.1600 6582.5468
37.1700 7091.6512
37.1800 6643.1556
37.1900 6526.6918
37.2000 6976.8302
37.2100 7200.7146
37.2200 7081.5364
37.2300 6794.0824
37.2400 7129.5442
37.2500 6767.2400
37.2600 7132.3072
37.2700 6737.6006
37.2800 6966.3746
37.2900 6702.1062
37.3000 6960.6852
37.3100 6764.9992
37.3200 6862.0598
37.3300 6939.1016
37.3400 6797.8210
37.3500 6833.6336
37.3600 6930.9782
37.3700 6706.6682
37.3800 6950.5712
37.3900 6828.0574
37.4000 6861.3370
37.4100 7168.7704
37.4200 7139.6476
37.4300 6914.0878
37.4400 6905.8984
37.4500 6741.4758
37.4600 7055.8960
37.4700 6929.9406
37.4800 6912.5114
37.4900 6866.5096
37.5000 7034.9252
37.5100 6391.5966
37.5200 6981.6780
37.5300 7003.7890
37.5400 6760.5132
37.5500 7121.6626
37.5600 6696.4698
37.5700 7019.9910
37.5800 6977.6010
37.5900 6776.5384
37.6000 6788.0940
37.6100 6790.1372
37.6200 7106.0474
37.6300 7080.2758
37.6400 6901.5820
37.6500 6594.2676
37.6600 7124.8006
37.6700 7372.4682
37.6800 7184.3824
37.6900 6648.4244
37.7000 6984.1724
37.7100 6879.6338
37.7200 6678.1054
37.7300 6665.5392
37.7400 6922.0572
37.7500 6664.1838
37.7600 7108.2032
37.7700 7287.0712
37.7800 6705.1212
37.7900 7422.0468
37.8000 7277.5642
37.8100 7276.3274
37.8200 6907.7336
37.8300 6925.5958
37.8400 6632.1268
37.8500 6736.9930
37.8600 7106.2444
37.8700 7036.9784
37.8800 7013.5506
37.8900 6850.2898
37.9000 6785.5240
37.9100 6527.2660
37.9200 6924.9398
37.9300 7227.6506
37.9400 6437.8488
37.9500 7086.4192
37.9600 6833.6336
37.9700 6992.4796
37.9800 7017.2478
37.9900 7177.0442
38.0000 6592.0520
38.0100 6697.4292
38.0200 6615.1734
38.0300 6813.5718
38.0400 6932.2534
38.0500 6897.2722
38.0600 6663.0738
38.0700 6672.8890
38.0800 6818.9364
38.0900 6903.6784
38.1000 7022.9672
38.1100 6917.2102
38.1200 7175.2800
38.1300 6638.4440
38.1400 7083.4904
38.1500 6574.6542
38.1600 6796.2142
38.1700 6791.0218
38.1800 6664.2134
38.1900 6840.8684
38.2000 6973.6726
38.2100 6816.4010
38.2200 6936.6464
38.2300 7034.6378
38.2400 7094.1342
38.2500 6775.0326
38.2600 6753.5762
38.2700 6874.7184
38.2800 7021.4616
38.2900 7049.6012
38.3000 6883.3846
38.3100 6713.9596
38.3200 6774.1488
38.3300 6921.5284
38.3400 6925.0594
38.3500 6961.3940
38.3600 6864.8446
38.3700 7190.9008
38.3800 6918.5888
38.3900 6910.2906
38.4000 7069.0096
38.4100 6822.8370
38.4200 6882.7564
38.4300 7156.7976
38.4400 7028.7500
38.4500 6749.3994
38.4600 6864.7022
38.4700 6927.6270
38.4800 6465.3580
38.4900 6820.7422
38.5000 6684.1442
38.5100 7096.7758
38.5200 7226.2662
38.5300 6883.6694
38.5400 6695.2462
38.5500 7118.3318
38.5600 6934.4246
38.5700 6785.9542
38.5800 6827.8564
38.5900 7139.6436
38.6000 7323.1852
38.6100 7246.0904
38.6200 6903.8720
38.6300 6992.0458
38.6400 7048.9982
38.6500 7142.4772
38.6600 7029.8234
38.6700 7193.5644
38.6800 7165.2776
38.6900 7207.2754
38.7000 7267.6856
38.7100 7545.6608
38.7200 7482.3894
38.7300 7517.9330
38.7400 7517.1680
38.7500 7487.3316
38.7600 7633.6466
38.7700 7405.9090
38.7800 7454.0780
38.7900 7480.3336
38.8000 8006.0172
38.8100 7753.2470
38.8200 7593.1168
38.8300 7688.7076
38.8400 7496.7798
38.8500 7851.7440
38.8600 7413.9184
38.8700 7709.4490
38.8800 7907.0704
38.8900 7605.1270
38.9000 7780.4818
38.9100 7469.6752
38.9200 7498.8728
38.9300 7438.9794
38.9400 7368.0004
38.9500 7686.9320
38.9600 7434.6004
38.9700 7802.6148
38.9800 7646.1108
38.9900 7152.4340
39.0000 7565.9326
39.0100 7450.3564
39.0200 7712.5244
39.0300 7776.6838
39.0400 7477.6522
39.0500 7862.9696
39.0600 7959.8502
39.0700 7755.1000
39.0800 7805.0546
39.0900 7942.3038
39.1000 8074.3376
39.1100 8270.8204
39.1200 7901.6472
39.1300 8060.8822
39.1400 8090.4606
39.1500 8531.6806
39.1600 8096.9156
39.1700 8660.9498
39.1800 8750.2084
39.1900 8885.7918
39.2000 9227.7718
39.2100 8797.2364
39.2200 9096.6446
39.2300 9528.1534
39.2400 9937.8564
39.2500 10223.1656
39.2600 10058.0038
39.2700 10232.4878
39.2800 10298.9746
39.2900 10233.1356
39.3000 10284.1960
39.3100 11160.3296
39.3200 11054.8282
39.3300 11035.5476
39.3400 11084.0820
39.3500 11429.0804
39.3600 11195.9806
39.3700 11390.6542
39.3800 11113.7874
39.3900 11573.9616
39.4000 11749.3400
39.4100 10977.1866
39.4200 11267.9460
39.4300 11467.9158
39.4400 10984.2122
39.4500 11089.2798
39.4600 10898.3772
39.4700 10431.5658
39.4800 10703.5530
39.4900 9886.4234
39.5000 9837.9150
39.5100 10005.5624
39.5200 9586.5006
39.5300 8945.5794
39.5400 9116.2696
39.5500 9092.4064
39.5600 9037.7808
39.5700 8634.8706
39.5800 8661.3770
39.5900 8433.9926
39.6000 7848.9470
39.6100 7886.3264
39.6200 7429.8666
39.6300 7547.5318
39.6400 7730.4288
39.6500 7462.7530
39.6600 7853.1226
39.6700 7153.4180
39.6800 7862.5904
39.6900 7884.0828
39.7000 7449.2846
39.7100 7310.9440
39.7200 7279.6338
39.7300 7803.1868
39.7400 6848.8412
39.7500 7087.9794
39.7600 7648.6638
39.7700 7447.4252
39.7800 6917.3038
39.7900 6881.3964
39.8000 7070.0448
39.8100 7144.5240
39.8200 7238.0070
39.8300 6990.6290
39.8400 7065.0814
39.8500 7201.4038
39.8600 7128.8614
39.8700 7230.3914
39.8800 7084.0502
39.8900 7134.4768
39.9000 7197.1126
39.9100 7033.1754
39.9200 7144.1464
39.9300 7550.2148
39.9400 7178.6832
39.9500 6474.3408
39.9600 6768.5762
39.9700 7088.3260
39.9800 6750.0208
39.9900 6934.5410
40.0000 6746.5612
40.0100 7194.0276
40.0200 6903.6442
40.0300 6848.6532
40.0400 6787.5370
40.0500 7133.4978
40.0600 6831.4208
40.0700 6739.8974
40.0800 6853.1552
40.0900 6946.8108
40.1000 6906.1288
40.1100 6892.0630
40.1200 6773.8814
40.1300 7115.2262
40.1400 6845.8040
40.1500 6956.0864
40.1600 7241.3998
40.1700 7408.1876
40.1800 7165.5738
40.1900 7137.8646
40.2000 7083.3626
40.2100 6928.3984
40.2200 6927.6392
40.2300 6900.0048
40.2400 6821.2456
40.2500 6797.0362
40.2600 6692.8020
40.2700 7019.3896
40.2800 7029.2692
40.2900 6955.7520
40.3000 6806.4340
40.3100 6827.3918
40.3200 6984.8494
40.3300 6946.5690
40.3400 6832.2608
40.3500 6320.1600
40.3600 7017.2958
40.3700 7192.6026
40.3800 6734.0132
40.3900 6935.2042
40.4000 7506.5878
40.4100 7058.0110
40.4200 7041.0336
40.4300 6972.4000
40.4400 7056.1402
40.4500 7014.4156
40.4600 6962.5570
40.4700 6669.2260
40.4800 7023.0526
40.4900 6642.5484
40.5000 6908.8428
40.5100 7065.1196
40.5200 6904.7762
40.5300 6857.9778
40.5400 6917.1370
40.5500 7288.3936
40.5600 6765.3096
40.5700 6486.1780
40.5800 6733.2520
40.5900 6828.2470
40.6000 6874.9398
40.6100 6899.7184
40.6200 6882.1020
40.6300 6846.9434
40.6400 6645.6674
40.6500 6841.3338
40.6600 6903.0240
40.6700 7192.2224
40.6800 7360.9180
40.6900 7078.2032
40.7000 6829.3180
40.7100 7493.1974
40.7200 7653.4970
40.7300 7327.3404
40.7400 7061.0718
40.7500 7336.6154
40.7600 7367.6156
40.7700 6979.7656
40.7800 7619.0674
40.7900 7451.1866
40.8000 7603.5050
40.8100 7656.7220
40.8200 7621.0782
40.8300 7753.0892
40.8400 7356.0482
40.8500 7672.7458
40.8600 7443.9104
40.8700 7991.4022
40.8800 7962.5374
40.8900 7955.1472
40.9000 7634.9724
40.9100 7920.5494
40.9200 8184.0756
40.9300 8119.6892
40.9400 8292.8662
40.9500 8209.5776
40.9600 8158.7948
40.9700 8146.9750
40.9800 8313.8574
40.9900 8274.5948
41.0000 8433.6068
41.0100 7695.1148
41.0200 8365.7462
41.0300 8061.0116
41.0400 7987.9566
41.0500 8224.4140
41.0600 7593.0574
41.0700 7839.4816
41.0800 7605.4362
41.0900 7792.6668
41.1000 7817.4812
41.1100 7437.2680
41.1200 7619.1830
41.1300 7456.5852
41.1400 7539.4238
41.1500 7499.2204
41.1600 7514.3702
41.1700 7325.5924
41.1800 7126.7374
41.1900 7521.4046
41.2000 7565.4948
41.2100 7062.6586
41.2200 7431.0962
41.2300 7237.1606
41.2400 7520.6356
41.2500 7233.8704
41.2600 6906.5608
41.2700 7111.1726
41.2800 6899.3806
41.2900 7185.6876
41.3000 7307.0232
41.3100 7473.3194
41.3200 7325.2776
41.3300 6930.3092
41.3400 7074.6126
41.3500 6936.7382
41.3600 7238.4578
41.3700 7095.3174
41.3800 7034.4890
41.3900 7235.6088
41.4000 7046.6512
41.4100 7042.0792
41.4200 6998.3692
41.4300 7061.3484
41.4400 6867.8474
41.4500 7374.0422
41.4600 6700.8220
41.4700 6794.6172
41.4800 6685.1152
41.4900 6861.5202
41.5000 6910.5110
41.5100 7488.8762
41.5200 7118.5564
41.5300 6746.1454
41.5400 6960.6324
41.5500 6668.0372
41.5600 7111.2110
41.5700 7102.6962
41.5800 6979.5280
41.5900 6933.3480
41.6000 6752.8162
41.6100 6926.9776
41.6200 7025.0846
41.6300 6773.6422
41.6400 7144.4190
41.6500 6913.3308
41.6600 7026.6056
41.6700 7307.1460
41.6800 6675.2046
41.6900 6805.0980
41.7000 6909.1358
41.7100 6952.9134
41.7200 7103.7004
41.7300 7030.5420
41.7400 7121.0498
41.7500 7123.6182
41.7600 6677.5866
41.7700 7027.6962
41.7800 6824.1724
41.7900 6719.5146
41.8000 7122.6384
41.8100 7143.0932
41.8200 6766.1222
41.8300 6769.4588
41.8400 6957.4748
41.8500 6897.4708
41.8600 7122.4830
41.8700 6961.5902
41.8800 6903.6980
41.8900 6649.9642
41.9000 7106.4860
41.9100 6797.0788
41.9200 7227.2192
41.9300 7155.2278
41.9400 6902.3022
41.9500 6770.9062
41.9600 6894.6248
41.9700 6841.7106
41.9800 7042.4820
41.9900 6945.2180
42.0000 6513.8028
42.0100 6839.6306
42.0200 6805.2486
42.0300 7137.4642
42.0400 7139.0364
42.0500 7097.4584
42.0600 7012.0394
42.0700 6762.4004
42.0800 6894.8754
42.0900 6944.6696
42.1000 6972.3470
42.1100 6908.4106
42.1200 6767.2176
42.1300 7015.1066
42.1400 6888.7996
42.1500 7179.2676
42.1600 7004.3326
42.1700 7046.7976
42.1800 7120.8422
42.1900 6605.8700
42.2000 7025.5892
42.2100 7199.8438
42.2200 7378.7232
42.2300 6812.9272
42.2400 6893.7354
42.2500 7001.3086
42.2600 6736.7326
42.2700 6937.2510
42.2800 6650.7812
42.2900 7124.0446
42.3000 6708.7882
42.3100 6735.6758
42.3200 6878.1542
42.3300 6751.4774
42.3400 6790.5798
42.3500 6869.4638
42.3600 6977.7758
42.3700 6744.7970
42.3800 7128.6532
42.3900 7060.8618
42.4000 6827.4504
42.4100 6612.3050
42.4200 6735.9778
42.4300 6625.1648
42.4400 6654.0108
42.4500 6699.7860
42.4600 7280.5542
42.4700 7278.2756
42.4800 6798.5994
42.4900 6502.0414
42.5000 6649.9532
42.5100 7080.2702
42.5200 7046.8710
42.5300 7209.9146
42.5400 7161.9970
42.5500 6440.0874
42.5600 6880.6462
42.5700 6861.6602
42.5800 6851.4022
42.5900 6917.2706
42.6000 6759.8312
42.6100 7271.9930
42.6200 6694.8718
42.6300 6972.0476
42.6400 6789.9976
42.6500 6848.4374
42.6600 7002.4944
42.6700 6888.0176
42.6800 6768.3634
42.6900 6889.4206
42.7000 7164.8796
42.7100 7130.4094
42.7200 7107.0182
42.7300 6761.5406
42.7400 6933.3886
42.7500 6763.8176
42.7600 6767.1058
42.7700 6898.8728
42.7800 6595.4146
42.7900 6870.0326
42.8000 6897.7034
42.8100 6534.6834
42.8200 6567.6054
42.8300 7262.4008
42.8400 6966.0458
42.8500 6735.6206
42.8600 6964.0080
42.8700 7061.5014
42.8800 6783.5074
42.8900 7009.3318
42.9000 7112.7254
42.9100 7101.5120
42.9200 6977.4666
42.9300 6705.3890
42.9400 6814.6204
42.9500 6733.1994
42.9600 6865.3158
42.9700 6972.5822
42.9800 6883.3406
42.9900 6858.2146
43.0000 7040.0326
43.0100 6902.3600
43.0200 7080.0944
43.0300 7105.7968
43.0400 6972.2470
43.0500 7101.4608
43.0600 7209.0624
43.0700 7087.3990
43.0800 7053.4074
43.0900 7130.7138
43.1000 7049.2074
43.1100 7195.8992
43.1200 6564.1650
43.1300 7056.8668
43.1400 7095.2360
43.1500 6574.6774
43.1600 6714.4442
43.1700 6668.0274
43.1800 7044.7014
43.1900 7120.9774
43.2000 7090.5460
43.2100 6929.2798
43.2200 6821.6248
43.2300 6981.3940
43.2400 6848.6702
43.2500 7245.8520
43.2600 6910.3418
43.2700 6512.6392
43.2800 6840.3434
43.2900 7253.0624
43.3000 7349.8682
43.3100 7125.0188
43.3200 7186.3452
43.3300 7035.2368
43.3400 7071.9548
43.3500 6940.5412
43.3600 6929.5214
43.3700 6882.1794
43.3800 7086.0156
43.3900 7007.6424
43.4000 6601.8726
43.4100 7073.1152
43.4200 6932.5708
43.4300 6984.5622
43.4400 7013.9404
43.4500 7021.9856
43.4600 6752.1838
43.4700 6961.1882
43.4800 6959.0862
43.4900 6743.8530
43.5000 6860.7422
43.5100 7281.9434
43.5200 7057.2550
43.5300 7120.1880
43.5400 6804.9240
43.5500 6803.1446
43.5600 6917.6050
43.5700 7235.4924
43.5800 7226.8676
43.5900 6975.2336
43.6000 6949.6094
43.6100 7032.9672
43.6200 7033.4480
43.6300 7125.9742
43.6400 7217.1386
43.6500 7018.8176
43.6600 7264.1764
43.6700 7596.2468
43.6800 7179.1870
43.6900 6743.9974
43.7000 7163.2536
43.7100 6860.4614
43.7200 6903.3440
43.7300 6799.2452
43.7400 6877.2224
43.7500 7450.1570
43.7600 7054.3644
43.7700 6929.8918
43.7800 7176.4844
43.7900 6830.9220
43.8000 7165.2898
43.8100 7051.4990
43.8200 6921.1760
43.8300 6929.9658
43.8400 7093.6386
43.8500 7041.2776
43.8600 6756.6670
43.8700 6906.1490
43.8800 7059.0520
43.8900 7134.1390
43.9000 7072.8124
43.9100 6915.4614
43.9200 7167.0028
43.9300 6879.8560
43.9400 7267.6994
43.9500 6921.9612
43.9600 7273.9184
43.9700 7263.0770
43.9800 6905.3150
43.9900 7145.0904
44.0000 6771.0438
44.0100 7121.8148
44.0200 7123.9022
44.0300 7084.2164
44.0400 7114.1016
44.0500 7313.4742
44.0600 6971.6796
44.0700 6826.3228
44.0800 7352.9378
44.0900 7065.0822
44.1000 6779.8392
44.1100 7280.3386
44.1200 7154.8128
44.1300 7031.6586
44.1400 7088.5466
44.1500 6686.4950
44.1600 7171.3990
44.1700 7022.4870
44.1800 7067.9882
44.1900 6954.3302
44.2000 7033.4228
44.2100 7348.7752
44.2200 6929.0486
44.2300 7291.7042
44.2400 7243.7784
44.2500 7132.6262
44.2600 7088.7566
44.2700 7415.0546
44.2800 6672.2718
44.2900 6906.3102
44.3000 7098.4130
44.3100 6609.1862
44.3200 7180.7666
44.3300 7452.5040
44.3400 7071.8042
44.3500 6935.6282
44.3600 6864.2252
44.3700 6724.4292
44.3800 7425.7846
44.3900 7134.9260
44.4000 7196.6292
44.4100 7265.6836
44.4200 7276.8986
44.4300 7351.2662
44.4400 7271.9816
44.4500 7047.6132
44.4600 7189.6460
44.4700 7212.2860
44.4800 7197.6864
44.4900 7044.7030
44.5000 7124.6566
44.5100 7497.2876
44.5200 7217.6350
44.5300 7008.8168
44.5400 6970.4288
44.5500 7271.1866
44.5600 7277.1582
44.5700 7155.8032
44.5800 6995.8732
44.5900 7217.8898
44.6000 7180.9252
44.6100 6947.2112
44.6200 7268.6622
44.6300 7041.3110
44.6400 7516.9686
44.6500 7245.5550
44.6600 7353.3358
44.6700 7426.6610
44.6800 7649.3482
44.6900 7144.9748
44.7000 7278.9250
44.7100 7535.4622
44.7200 7183.9200
44.7300 7229.3580
44.7400 6826.2708
44.7500 6972.0956
44.7600 7252.5464
44.7700 6774.1796
44.7800 7013.8770
44.7900 7583.4790
44.8000 7152.6220
44.8100 7003.5254
44.8200 7496.6578
44.8300 6695.6698
44.8400 7304.2594
44.8500 7396.5544
44.8600 7037.5138
44.8700 7065.5240
44.8800 7182.1004
44.8900 7081.1874
44.9000 6978.7158
44.9100 6841.5552
44.9200 7114.2390
44.9300 7166.0970
44.9400 7043.8900
44.9500 7391.6504
44.9600 7345.3394
44.9700 7211.2068
44.9800 7102.1394
44.9900 7479.8478
45.0000 7490.5274
45.0100 7423.6182
45.0200 7280.1034
45.0300 7410.9374
45.0400 7405.9790
45.0500 7218.2812
45.0600 7431.4152
45.0700 7102.8044
45.0800 7202.6066
45.0900 7527.1762
45.1000 7593.1316
45.1100 8113.2756
45.1200 7421.2752
45.1300 7847.3804
45.1400 8130.8186
45.1500 7921.7146
45.1600 7970.3662
45.1700 8239.5012
45.1800 8196.2826
45.1900 8111.9368
45.2000 8377.2208
45.2100 8334.8446
45.2200 8219.0616
45.2300 8995.2556
45.2400 8944.5442
45.2500 8589.5768
45.2600 8853.4570
45.2700 9503.4318
45.2800 9500.9920
45.2900 9793.7532
45.3000 9782.3470
45.3100 10082.5146
45.3200 10039.8446
45.3300 10252.4968
45.3400 10519.5776
45.3500 10974.9210
45.3600 11137.9908
45.3700 10411.2638
45.3800 10685.5770
45.3900 10813.8256
45.4000 10814.8120
45.4100 10678.7500
45.4200 11119.8568
45.4300 11271.6504
45.4400 11140.5704
45.4500 11306.0734
45.4600 10963.3960
45.4700 11140.3296
45.4800 11107.5382
45.4900 11267.1964
45.5000 11369.8544
45.5100 10855.7268
45.5200 10968.1486
45.5300 11107.7888
45.5400 11246.8416
45.5500 11214.7616
45.5600 11496.3574
45.5700 11380.7828
45.5800 11693.8850
45.5900 12162.2640
45.6000 12052.4910
45.6100 11868.5922
45.6200 12103.2462
45.6300 12749.2586
45.6400 12485.7300
45.6500 12808.7182
45.6600 13372.6196
45.6700 13671.9140
45.6800 13874.2676
45.6900 14191.8212
45.7000 14120.6316
45.7100 14138.1380
45.7200 14793.0160
45.7300 14903.3528
45.7400 15676.2712
45.7500 15661.3396
45.7600 15924.7640
45.7700 15961.4486
45.7800 16429.3262
45.7900 16210.9326
45.8000 16544.5948
45.8100 17038.6718
45.8200 17021.0970
45.8300 17655.4004
45.8400 17087.1094
45.8500 17758.4488
45.8600 17382.0214
45.8700 17400.5192
45.8800 17673.1152
45.8900 17363.2780
45.9000 17790.7650
45.9100 18323.5856
45.9200 17704.7820
45.9300 17302.4008
45.9400 17452.1240
45.9500 17418.5596
45.9600 17069.7152
45.9700 17363.9340
45.9800 16916.0010
45.9900 15976.1882
46.0000 15498.0958
46.0100 15303.9486
46.0200 15216.6260
46.0300 15272.3372
46.0400 14393.5922
46.0500 13556.6154
46.0600 13797.4838
46.0700 13324.6298
46.0800 12600.6494
46.0900 12024.6712
46.1000 11593.0916
46.1100 11241.0710
46.1200 10867.2460
46.1300 10532.5390
46.1400 10512.8866
46.1500 10480.6038
46.1600 9992.0662
46.1700 9804.5898
46.1800 9623.5702
46.1900 9035.3166
46.2000 9010.2058
46.2100 9037.8458
46.2200 9074.7152
46.2300 8779.2684
46.2400 8438.3300
46.2500 8163.4294
46.2600 7712.0240
46.2700 7874.6964
46.2800 7447.5732
46.2900 7893.9542
46.3000 7408.8510
46.3100 7598.4602
46.3200 7662.8012
46.3300 7575.3108
46.3400 7598.8444
46.3500 7441.3876
46.3600 7953.2894
46.3700 7427.5424
46.3800 7183.1194
46.3900 7503.1096
46.4000 7505.6974
46.4100 7702.5448
46.4200 7486.8180
46.4300 7375.3572
46.4400 7333.3570
46.4500 7679.4986
46.4600 7404.8258
46.4700 7651.6244
46.4800 7491.1482
46.4900 7270.2686
46.5000 7284.4564
46.5100 7211.1246
46.5200 7306.1930
46.5300 7735.7430
46.5400 7528.8964
46.5500 7316.0408
46.5600 6819.1752
46.5700 7036.1206
46.5800 7114.5818
46.5900 7082.1232
46.6000 7300.6674
46.6100 7651.0360
46.6200 7421.6480
46.6300 7252.4146
46.6400 7187.4064
46.6500 7170.4590
46.6600 7644.4978
46.6700 7385.2294
46.6800 7402.9826
46.6900 7313.5612
46.7000 7482.0418
46.7100 7673.0722
46.7200 7262.7596
46.7300 7406.5666
46.7400 7413.0876
46.7500 7656.1776
46.7600 7336.3574
46.7700 7569.6484
46.7800 7616.6610
46.7900 7623.1600
46.8000 7606.8880
46.8100 8008.6140
46.8200 7609.9454
46.8300 7755.3524
46.8400 7693.9298
46.8500 8038.2584
46.8600 7610.7650
46.8700 7590.1042
46.8800 7825.5616
46.8900 7868.0436
46.9000 7980.8562
46.9100 7889.9382
46.9200 7845.3264
46.9300 7953.9592
46.9400 7727.5594
46.9500 7433.3480
46.9600 8147.9044
46.9700 7809.8446
46.9800 7578.1860
46.9900 7865.2068
47.0000 7562.6944
47.0100 7434.7656
47.0200 7737.7384
47.0300 7959.6956
47.0400 7598.2942
47.0500 7531.7472
47.0600 7365.6210
47.0700 7530.2938
47.0800 7056.4550
47.0900 7309.2652
47.1000 7616.8628
47.1100 7356.4340
47.1200 7238.0070
47.1300 7453.4880
47.1400 7445.1482
47.1500 7231.2988
47.1600 7645.9440
47.1700 7012.9468
47.1800 7213.7272
47.1900 7473.3902
47.2000 7352.9306
47.2100 7431.5592
47.2200 7064.2570
47.2300 7321.3728
47.2400 7520.2466
47.2500 7208.9364
47.2600 7635.6478
47.2700 7604.9104
47.2800 6979.0162
47.2900 7194.4914
47.3000 7843.5294
47.3100 7462.6684
47.3200 7174.5068
47.3300 7079.5256
47.3400 7712.0354
47.3500 7457.3706
47.3600 7378.0974
47.3700 7276.0726
47.3800 7380.2368
47.3900 7252.2192
47.4000 7547.1166
47.4100 7539.0284
47.4200 7128.3440
47.4300 7618.0746
47.4400 7488.0346
47.4500 7833.2024
47.4600 7321.3476
47.4700 7520.4924
47.4800 7337.4480
47.4900 7317.8946
47.5000 7707.9402
47.5100 7487.4154
47.5200 7292.3764
47.5300 7119.7144
47.5400 7065.9050
47.5500 6959.5792
47.5600 7098.3912
47.5700 6992.2916
47.5800 7030.9734
47.5900 7430.9286
47.6000 7264.4320
47.6100 7169.6070
47.6200 7292.8108
47.6300 7210.9384
47.6400 7340.9944
47.6500 7512.2478
47.6600 7278.6824
47.6700 7112.2144
47.6800 7225.0822
47.6900 7069.3344
47.7000 6987.3754
47.7100 7108.5172
47.7200 6973.4042
47.7300 7236.3736
47.7400 6895.5078
47.7500 6999.8658
47.7600 7020.5460
47.7700 7096.7928
47.7800 7041.2020
47.7900 7111.7928
47.8000 7161.8132
47.8100 7264.2098
47.8200 7369.4182
47.8300 7519.0364
47.8400 7359.2154
47.8500 7318.3528
47.8600 6744.7974
47.8700 7162.7190
47.8800 7032.6334
47.8900 7079.2008
47.9000 6946.6610
47.9100 6837.4446
47.9200 6916.6944
47.9300 7191.0132
47.9400 7187.6058
47.9500 7395.2336
47.9600 7121.0246
47.9700 6941.8124
47.9800 7301.8506
47.9900 6901.4380
48.0000 6998.4106
48.0100 6688.8864
48.0200 6965.4704
48.0300 7456.9946
48.0400 7431.3264
48.0500 6993.9794
48.0600 6710.4024
48.0700 7092.7466
48.0800 7039.8658
48.0900 7179.8828
48.1000 7068.2146
48.1100 7019.8730
48.1200 6881.4136
48.1300 7157.7294
48.1400 7022.3528
48.1500 7447.4268
48.1600 7456.6772
48.1700 7222.4088
48.1800 7345.3898
48.1900 7332.2900
48.2000 6797.2050
48.2100 6611.7526
48.2200 6911.5788
48.2300 7315.4322
48.2400 7052.5496
48.2500 7345.3580
48.2600 7511.7268
48.2700 7245.2540
48.2800 7157.3926
48.2900 6918.4668
48.3000 6935.4052
48.3100 6815.7992
48.3200 7218.6296
48.3300 6936.2182
48.3400 6591.4428
48.3500 6886.0458
48.3600 6858.8248
48.3700 6813.9900
48.3800 7262.2762
48.3900 7201.9792
48.4000 7350.3580
48.4100 7244.3856
48.4200 7286.0498
48.4300 7095.5436
48.4400 7222.8116
48.4500 7093.3684
48.4600 7067.0092
48.4700 6817.4878
48.4800 7174.0502
48.4900 6958.8842
48.5000 6723.9372
48.5100 6812.0110
48.5200 6962.2632
48.5300 6779.6602
48.5400 6880.5680
48.5500 6929.4548
48.5600 7076.4250
48.5700 6947.9598
48.5800 6881.3102
48.5900 7119.0756
48.6000 7283.1812
48.6100 7012.4462
48.6200 6967.4846
48.6300 7031.6814
48.6400 6785.7728
48.6500 7084.0218
48.6600 7267.6888
48.6700 7077.3974
48.6800 6860.9270
48.6900 7173.9746
48.7000 7093.1770
48.7100 6794.5992
48.7200 7012.3226
48.7300 6903.2812
48.7400 7300.9986
48.7500 6762.5338
48.7600 7047.9744
48.7700 7062.4390
48.7800 7065.8090
48.7900 6896.7960
48.8000 7029.6648
48.8100 7146.6048
48.8200 7066.2248
48.8300 7242.1338
48.8400 7314.6656
48.8500 7092.0704
48.8600 6908.1552
48.8700 7173.1298
48.8800 7276.7260
48.8900 7293.6516
48.9000 7251.2948
48.9100 7008.9828
48.9200 7645.4264
48.9300 7214.2302
48.9400 6945.9676
48.9500 6999.7290
48.9600 7001.1858
48.9700 7045.9424
48.9800 6956.8726
48.9900 7099.7852
49.0000 6824.5336
49.0100 6868.8152
49.0200 7049.4970
49.0300 7101.9490
49.0400 7051.4738
49.0500 6966.0604
49.0600 7128.4586
49.0700 6857.2820
49.0800 6862.3096
49.0900 6769.6276
49.1000 7045.6430
49.1100 6973.7680
49.1200 7073.0136
49.1300 7027.4040
49.1400 7115.1400
49.1500 7032.3454
49.1600 7063.6264
49.1700 7047.4584
49.1800 6768.8314
49.1900 7361.3656
49.2000 7038.7882
49.2100 6910.8878
49.2200 6995.6950
49.2300 6935.8350
49.2400 7011.8286
49.2500 7149.3172
49.2600 7107.1378
49.2700 6923.6084
49.2800 7067.4634
49.2900 6848.4734
49.3000 6863.7906
49.3100 7133.3170
49.3200 7007.9972
49.3300 7006.4568
49.3400 7314.5240
49.3500 6939.0690
49.3600 6677.3230
49.3700 7640.5908
49.3800 7065.8798
49.3900 6826.5638
49.4000 7077.6986
49.4100 6881.5576
49.4200 6826.6276
49.4300 7054.7444
49.4400 6703.1348
49.4500 7100.7926
49.4600 7359.9528
49.4700 7046.4632
49.4800 7050.1482
49.4900 6877.6872
49.5000 6924.6850
49.5100 6928.7150
49.5200 7348.3440
49.5300 6923.8778
49.5400 7263.5792
49.5500 7366.2810
49.5600 6967.3478
49.5700 7190.6104
49.5800 7249.4612
49.5900 7136.3054
49.6000 7059.2936
49.6100 6912.9500
49.6200 7119.1536
49.6300 7042.5870
49.6400 6965.0220
49.6500 6660.3048
49.6600 6982.5538
49.6700 6950.8854
49.6800 6998.8264
49.6900 7173.8558
49.7000 7030.2808
49.7100 6985.6706
49.7200 7044.6020
49.7300 7146.1474
49.7400 7299.7184
49.7500 7435.9440
49.7600 6996.5266
49.7700 6787.6798
49.7800 6759.0112
49.7900 6912.1688
49.8000 6890.4264
49.8100 7196.8344
49.8200 7070.7226
49.8300 7146.1352
49.8400 7201.6162
49.8500 7184.6826
49.8600 6882.2754
49.8700 6859.2432
49.8800 6944.4174
49.8900 7075.2612
49.9000 6940.9236
49.9100 7360.3906
49.9200 6786.2268
49.9300 7092.6286
49.9400 7060.2946
49.9500 7298.6612
49.9600 7260.5396
49.9700 7030.9098
49.9800 7277.0556
49.9900 7384.1520
50.0000 6889.1098
50.0100 6869.5808
50.0200 7004.1674
50.0300 6567.9724
50.0400 7103.0542
50.0500 7173.1844
50.0600 6952.5504
50.0700 6837.1158
50.0800 6881.6984
50.0900 6800.0102
50.1000 7043.3650
50.1100 7095.5818
50.1200 7156.5714
50.1300 6851.8644
50.1400 7326.5308
50.1500 7245.2198
50.1600 7085.7796
50.1700 6998.6524
50.1800 7216.7146
50.1900 7317.2356
50.2000 6858.2894
50.2100 6569.2586
50.2200 6591.4954
50.2300 7270.5070
50.2400 7243.4790
50.2500 7014.9682
50.2600 7172.7572
50.2700 6907.4194
50.2800 6991.7724
50.2900 7248.3276
50.3000 7278.1926
50.3100 7330.7926
50.3200 6808.4648
50.3300 6896.5478
50.3400 7020.4020
50.3500 7174.0064
50.3600 7000.8204
50.3700 7171.9132
50.3800 7402.0248
50.3900 7076.7350
50.4000 7164.0372
50.4100 6959.1666
50.4200 7234.7648
50.4300 7251.6708
50.4400 7200.2068
50.4500 7050.2556
50.4600 7060.5494
50.4700 7354.7640
50.4800 7320.9734
50.4900 7476.4112
50.5000 6899.9072
50.5100 6905.6210
50.5200 6916.6268
50.5300 7061.1246
50.5400 7002.7994
50.5500 7115.5102
50.5600 7065.4020
50.5700 6826.8034
50.5800 7233.4994
50.5900 7162.7068
50.6000 7534.0828
50.6100 7097.7190
50.6200 7203.6320
50.6300 7161.4274
50.6400 6932.4032
50.6500 7291.8612
50.6600 7398.3870
50.6700 7358.8102
50.6800 7040.3580
50.6900 7022.2860
50.7000 7531.4926
50.7100 7397.4918
50.7200 7264.4474
50.7300 7132.5992
50.7400 7310.9848
50.7500 7257.7750
50.7600 6889.1902
50.7700 7198.2780
50.7800 7712.2038
50.7900 7198.6946
50.8000 7000.4508
50.8100 7444.5972
50.8200 7593.3790
50.8300 7169.8722
50.8400 7387.0328
50.8500 7048.8028
50.8600 7383.6914
50.8700 7283.9616
50.8800 7345.6348
50.8900 7141.5560
50.9000 7433.9860
50.9100 7027.1842
50.9200 7257.1900
50.9300 7516.2680
50.9400 7292.3844
50.9500 7414.5694
50.9600 7398.3512
50.9700 7465.5444
50.9800 7304.0170
50.9900 7357.2152
51.0000 7466.8474
51.0100 7077.8922
51.0200 7626.3412
51.0300 7193.9876
51.0400 7383.1128
51.0500 7522.3934
51.0600 7237.9476
51.0700 7199.3734
51.0800 7519.7054
51.0900 7393.1014
51.1000 7494.3416
51.1100 7756.6024
51.1200 7791.8278
51.1300 7943.8322
51.1400 7388.9664
51.1500 7440.2206
51.1600 7293.6524
51.1700 7469.8258
51.1800 7422.2486
51.1900 7402.2762
51.2000 7293.7500
51.2100 7443.2714
51.2200 7508.6840
51.2300 7558.6312
51.2400 7742.9044
51.2500 7419.4246
51.2600 7516.5210
51.2700 7497.1786
51.2800 7469.8764
51.2900 8143.0444
51.3000 7884.1740
51.3100 7638.7288
51.3200 7503.8046
51.3300 7729.9414
51.3400 7223.2276
51.3500 7381.2630
51.3600 7654.0600
51.3700 7520.3100
51.3800 7524.8446
51.3900 7516.9002
51.4000 7370.1326
51.4100 7176.0310
51.4200 7615.0382
51.4300 7450.8244
51.4400 7482.9020
51.4500 7441.5006
51.4600 7418.8306
51.4700 7502.5968
51.4800 7311.4828
51.4900 7640.9644
51.5000 7471.6552
51.5100 7371.1718
51.5200 7220.2230
51.5300 7563.7418
51.5400 7077.5642
51.5500 7562.9964
51.5600 7570.4712
51.5700 7040.9050
51.5800 7610.0448
51.5900 7735.9798
51.6000 7609.4620
51.6100 7850.9424
51.6200 7540.3100
51.6300 7603.6320
51.6400 7041.5730
51.6500 7331.5210
51.6600 7553.0004
51.6700 7413.6718
51.6800 7996.8726
51.6900 7705.7894
51.7000 7526.2118
51.7100 7840.5266
51.7200 7907.9786
51.7300 7590.8032
51.7400 7703.1396
51.7500 7479.6054
51.7600 7899.9000
51.7700 7501.0766
51.7800 7563.8672
51.7900 7606.7366
51.8000 7717.4576
51.8100 7555.5802
51.8200 7468.7166
51.8300 7632.1622
51.8400 7629.9462
51.8500 7674.3074
51.8600 7355.4240
51.8700 7365.1334
51.8800 7415.0416
51.8900 7106.6796
51.9000 7242.0378
51.9100 7496.9506
51.9200 7156.0482
51.9300 7285.4232
51.9400 7250.3930
51.9500 7222.0792
51.9600 7212.0394
51.9700 6943.3666
51.9800 7212.7628
51.9900 7446.3900
52.0000 7306.1132
52.0100 7281.3510
52.0200 7238.7712
52.0300 7370.2450
52.0400 7177.7270
52.0500 6769.0210
52.0600 6927.7766
52.0700 7522.6888
52.0800 7137.4984
52.0900 7252.0728
52.1000 6773.8188
52.1100 6958.1348
52.1200 7270.6088
52.1300 7277.0476
52.1400 6931.7032
52.1500 6956.0368
52.1600 7053.9218
52.1700 7156.8368
52.1800 6937.1004
52.1900 7261.4218
52.2000 6866.1166
52.2100 7053.7142
52.2200 6999.9024
52.2300 7171.6504
52.2400 6993.8712
52.2500 7297.5212
52.2600 7115.6730
52.2700 7088.3194
52.2800 7097.3796
52.2900 7233.2520
52.3000 7056.0808
52.3100 7530.5696
52.3200 7173.4724
52.3300 6996.3054
52.3400 7369.2586
52.3500 6842.9688
52.3600 7077.4642
52.3700 6912.9224
52.3800 6976.4332
52.3900 7157.5040
52.4000 6876.0556
52.4100 7059.2278
52.4200 7180.5704
52.4300 6955.6282
52.4400 7152.2852
52.4500 7071.4356
52.4600 6802.9492
52.4700 7104.8218
52.4800 7000.0310
52.4900 7238.4716
52.5000 7183.0550
52.5100 7118.4098
52.5200 6750.8790
52.5300 6911.2606
52.5400 6853.9184
52.5500 7092.4772
52.5600 7485.1124
52.5700 7055.1066
52.5800 6991.4884
52.5900 6601.7154
52.6000 6748.7570
52.6100 7018.5026
52.6200 6943.0852
52.6300 6874.5336
52.6400 7156.0408
52.6500 7289.5834
52.6600 7139.7062
52.6700 6977.5220
52.6800 7003.2024
52.6900 6632.7022
52.7000 7083.3912
52.7100 7212.5496
52.7200 6970.6666
52.7300 7059.1202
52.7400 6820.4748
52.7500 7400.3036
52.7600 6625.5404
52.7700 6692.6558
52.7800 7096.7106
52.7900 6994.8266
52.8000 7252.9028
52.8100 7008.9624
52.8200 7272.3462
52.8300 6996.2280
52.8400 6717.3080
52.8500 6986.7554
52.8600 7159.8624
52.8700 7041.2792
52.8800 6941.4340
52.8900 6969.7786
52.9000 7292.0662
52.9100 6776.2776
52.9200 6780.2982
52.9300 7346.3736
52.9400 6848.9746
52.9500 7191.0262
52.9600 7089.8730
52.9700 7306.8156
52.9800 7205.4314
52.9900 6992.5406
53.0000 7010.9334
53.0100 7063.3016
53.0200 6943.1738
53.0300 6892.7662
53.0400 6715.1590
53.0500 6889.3334
53.0600 6906.1344
53.0700 6858.0738
53.0800 6909.6208
53.0900 6994.2122
53.1000 6890.1514
53.1100 7043.0240
53.1200 6961.4226
53.1300 7249.3994
53.1400 7212.1378
53.1500 7033.5384
53.1600 7401.3672
53.1700 7284.0796
53.1800 7084.7868
53.1900 7047.2868
53.2000 6948.1788
53.2100 6680.1896
53.2200 6959.6778
53.2300 7311.1516
53.2400 6892.8312
53.2500 7208.4790
53.2600 7008.9062
53.2700 6739.1202
53.2800 6553.9554
53.2900 7137.5472
53.3000 6987.9508
53.3100 7071.8270
53.3200 6954.6988
53.3300 6594.0600
53.3400 7099.0984
53.3500 7249.1496
53.3600 7483.1324
53.3700 6858.6410
53.3800 7276.5006
53.3900 6890.2092
53.4000 6659.8474
53.4100 7015.4118
53.4200 7034.5222
53.4300 7480.5372
53.4400 6770.5338
53.4500 6633.7716
53.4600 6899.3344
53.4700 7326.9018
53.4800 7154.9812
53.4900 7168.9104
53.5000 7135.5160
53.5100 7135.9814
53.5200 6966.5666
53.5300 6832.5212
53.5400 7285.1798
53.5500 7130.3450
53.5600 7152.9614
53.5700 7141.4576
53.5800 6745.2734
53.5900 6968.7452
53.6000 7124.8624
53.6100 7255.8952
53.6200 7230.6796
53.6300 6987.7556
53.6400 6958.3366
53.6500 7280.2254
53.6600 7122.3860
53.6700 7004.0234
53.6800 7333.5294
53.6900 7143.0582
53.7000 6902.1378
53.7100 7432.0476
53.7200 6820.5754
53.7300 7062.4096
53.7400 6731.8888
53.7500 6911.8294
53.7600 7112.2802
53.7700 6742.7096
53.7800 7129.3514
53.7900 7154.5076
53.8000 7128.7402
53.8100 7042.4096
53.8200 7331.6618
53.8300 6717.6338
53.8400 6954.9846
53.8500 6823.0346
53.8600 7004.1748
53.8700 6916.5022
53.8800 6805.2698
53.8900 6884.7152
53.9000 7034.2236
53.9100 6779.5544
53.9200 6572.0944
53.9300 6705.1452
53.9400 7266.7684
53.9500 7272.5406
53.9600 7123.1176
53.9700 6918.6840
53.9800 6833.7548
53.9900 6979.8266
54.0000 7229.5792
54.0100 7183.4172
54.0200 7085.3956
54.0300 7422.7270
54.0400 6907.7580
54.0500 7072.8906
54.0600 7169.2416
54.0700 7250.2190
54.0800 6813.2336
54.0900 7088.8012
54.1000 7292.9972
54.1100 7132.7050
54.1200 6754.1792
54.1300 6934.8404
54.1400 6963.9136
54.1500 6951.9686
54.1600 7537.5268
54.1700 7482.0312
54.1800 7329.5842
54.1900 7434.1324
54.2000 7111.4738
54.2100 7187.2460
54.2200 6904.8340
54.2300 7162.8996
54.2400 6698.8464
54.2500 7179.6606
54.2600 7226.9670
54.2700 7373.5278
54.2800 7037.0110
54.2900 7151.6976
54.3000 7502.0508
54.3100 7324.4092
54.3200 7267.2404
54.3300 6992.9590
54.3400 7037.7726
54.3500 7309.2268
54.3600 7082.0182
54.3700 6973.1266
54.3800 7435.3214
54.3900 7070.2010
54.4000 7127.0394
54.4100 7331.3900
54.4200 7363.1298
54.4300 7152.6814
54.4400 6889.0398
54.4500 6936.6488
54.4600 7276.2524
54.4700 7116.9262
54.4800 6868.9600
54.4900 6774.5826
54.5000 7317.1696
54.5100 7756.6796
54.5200 7520.2384
54.5300 7324.9398
54.5400 7349.3392
54.5500 7119.3458
54.5600 7403.7582
54.5700 7170.0806
54.5800 6962.9508
54.5900 6983.7068
54.6000 7150.1840
54.6100 6692.2640
54.6200 7533.6816
54.6300 7196.7636
54.6400 7357.7888
54.6500 7137.0468
54.6600 7214.7152
54.6700 6907.2550
54.6800 7123.6548
54.6900 6884.1260
54.7000 7360.2572
54.7100 7267.4218
54.7200 6799.4662
54.7300 7103.4374
54.7400 7448.3756
54.7500 7375.3678
54.7600 6919.3098
54.7700 7048.5588
54.7800 7250.5852
54.7900 7229.7470
54.8000 7632.2282
54.8100 7354.9878
54.8200 7367.7986
54.8300 7032.2786
54.8400 7120.1896
54.8500 7417.0614
54.8600 7255.2914
54.8700 6875.7862
54.8800 7172.1980
54.8900 7094.9382
54.9000 7032.0206
54.9100 7266.1996
54.9200 7023.5066
54.9300 7390.1546
54.9400 6940.1970
54.9500 7292.3186
54.9600 7428.6580
54.9700 7004.9430
54.9800 6835.1586
54.9900 7053.7240
55.0000 7028.0688
55.0100 7049.1666
55.0200 7286.6520
55.0300 6883.2894
55.0400 7142.5358
55.0500 6948.7810
55.0600 7342.6726
55.0700 7141.7268
55.0800 7370.3946
55.0900 7336.7236
55.1000 7244.7632
55.1100 7160.8944
55.1200 6987.7230
55.1300 7278.1348
55.1400 7461.0196
55.1500 7169.5760
55.1600 6807.3414
55.1700 6903.9828
55.1800 7118.5660
55.1900 7274.2790
55.2000 7423.7948
55.2100 7317.5798
55.2200 7088.7012
55.2300 7077.9542
55.2400 7237.7262
55.2500 7046.0058
55.2600 6968.1136
55.2700 7046.4184
55.2800 7152.7824
55.2900 7360.5574
55.3000 7140.5062
55.3100 7485.9750
55.3200 6951.8930
55.3300 7357.1810
55.3400 7086.6936
55.3500 7276.7644
55.3600 7348.9722
55.3700 7344.2058
55.3800 6952.8572
55.3900 7284.7558
55.4000 6960.5094
55.4100 6746.8266
55.4200 7399.1008
55.4300 7244.7860
55.4400 7424.1578
55.4500 7044.4986
55.4600 7041.5064
55.4700 7198.2512
55.4800 7189.5736
55.4900 7003.6980
55.5000 6920.5852
55.5100 7214.6590
55.5200 7105.6918
55.5300 7116.3298
55.5400 7389.0966
55.5500 7492.9818
55.5600 7225.0912
55.5700 7043.8500
55.5800 7024.4190
55.5900 7677.7140
55.6000 7414.2488
55.6100 6946.2670
55.6200 6807.3894
55.6300 6809.9218
55.6400 6822.5280
55.6500 7349.6874
55.6600 7081.0678
55.6700 7174.6020
55.6800 7422.0638
55.6900 7087.7898
55.7000 7118.4644
55.7100 7345.9538
55.7200 7125.5834
55.7300 7084.8446
55.7400 6833.4294
55.7500 7030.7454
55.7600 7148.1502
55.7700 7037.4878
55.7800 7131.2818
55.7900 7193.2096
55.8000 7362.6912
55.8100 7182.6472
55.8200 7103.5556
55.8300 7170.2294
55.8400 7426.5064
55.8500 7390.5372
55.8600 6975.4664
55.8700 7566.0424
55.8800 7762.2444
55.8900 7549.8982
55.9000 7454.2920
55.9100 7392.9516
55.9200 7446.3794
55.9300 7096.9002
55.9400 7253.1184
55.9500 7481.7994
55.9600 7329.0764
55.9700 7180.3362
55.9800 7165.8472
55.9900 7234.6126
56.0000 7262.0800
56.0100 7465.8178
56.0200 7539.3978
56.0300 7124.2122
56.0400 7023.7402
56.0500 7358.4252
56.0600 8085.5054
56.0700 7776.3982
56.0800 7855.7568
56.0900 7901.4974
56.1000 8130.3614
56.1100 8120.9684
56.1200 8388.0696
56.1300 8061.4062
56.1400 8619.7006
56.1500 8162.3072
56.1600 8177.1648
56.1700 8244.5606
56.1800 8370.5038
56.1900 8076.8148
56.2000 8621.1402
56.2100 8633.6646
56.2200 8406.0148
56.2300 8624.5882
56.2400 8201.9718
56.2500 7967.7808
56.2600 8555.5810
56.2700 8408.2454
56.2800 8662.7246
56.2900 8681.7758
56.3000 8750.8228
56.3100 8550.1708
56.3200 8481.8978
56.3300 8607.8044
56.3400 8452.3560
56.3500 8346.2956
56.3600 8266.3224
56.3700 8479.1536
56.3800 8281.0188
56.3900 8398.1714
56.4000 8006.2516
56.4100 8445.8520
56.4200 8251.6088
56.4300 8193.3902
56.4400 8261.0164
56.4500 7957.9614
56.4600 8456.6040
56.4700 8280.7926
56.4800 8489.6062
56.4900 8110.7698
56.5000 8591.0612
56.5100 8213.4904
56.5200 8051.4258
56.5300 7882.2974
56.5400 8129.0284
56.5500 8271.5422
56.5600 8383.0550
56.5700 8519.3042
56.5800 8440.1604
56.5900 8544.5808
56.6000 8002.9078
56.6100 8234.3246
56.6200 8257.5740
56.6300 8542.2322
56.6400 8201.1214
56.6500 8450.7976
56.6600 8480.0106
56.6700 8552.3632
56.6800 8740.4346
56.6900 8719.9496
56.7000 8612.4976
56.7100 8910.4500
56.7200 9366.7936
56.7300 8953.9680
56.7400 9301.8238
56.7500 9387.6962
56.7600 9573.8720
56.7700 9465.8292
56.7800 10158.7452
56.7900 9748.1152
56.8000 10281.7236
56.8100 10219.8894
56.8200 9979.2888
56.8300 9988.0860
56.8400 10970.8936
56.8500 10785.0652
56.8600 10792.9752
56.8700 10921.3802
56.8800 11291.3704
56.8900 11223.9746
56.9000 11040.7154
56.9100 11765.6356
56.9200 12434.8210
56.9300 12454.7250
56.9400 12588.7434
56.9500 13160.0374
56.9600 13241.7456
56.9700 13013.2942
56.9800 13997.9654
56.9900 14239.7136
57.0000 14080.1628
57.0100 14712.4788
57.0200 15601.2060
57.0300 15307.7198
57.0400 15594.7672
57.0500 16310.6298
57.0600 16511.4876
57.0700 16729.1634
57.0800 17231.8360
57.0900 17629.7542
57.1000 17732.2086
57.1100 18088.7028
57.1200 17692.1696
57.1300 18494.6550
57.1400 18897.4594
57.1500 19088.6866
57.1600 19347.6464
57.1700 19129.5930
57.1800 18675.0374
57.1900 18953.2048
57.2000 19121.1280
57.2100 19260.6722
57.2200 18483.7060
57.2300 18977.9200
57.2400 18645.7454
57.2500 17889.6240
57.2600 18599.9610
57.2700 18039.1438
57.2800 17451.4680
57.2900 17091.8864
57.3000 17516.0400
57.3100 17198.3920
57.3200 16451.0238
57.3300 16377.4984
57.3400 15893.7386
57.3500 15613.2862
57.3600 15035.4248
57.3700 14436.5756
57.3800 14202.5196
57.3900 14137.4300
57.4000 13687.1728
57.4100 13517.4584
57.4200 12776.2216
57.4300 12165.7576
57.4400 12227.5228
57.4500 11619.4002
57.4600 10509.1114
57.4700 10881.0652
57.4800 10664.8194
57.4900 10609.6566
57.5000 10433.4180
57.5100 10012.9338
57.5200 9826.5300
57.5300 9369.8934
57.5400 9386.8652
57.5500 8903.8452
57.5600 8663.9550
57.5700 9089.5052
57.5800 8375.1684
57.5900 7917.1484
57.6000 7782.7864
57.6100 8247.8272
57.6200 8206.8734
57.6300 7851.0474
57.6400 8084.6744
57.6500 7834.9178
57.6600 7909.5744
57.6700 7697.1248
57.6800 8123.4212
57.6900 7638.4684
57.7000 7471.8490
57.7100 7468.4970
57.7200 7642.3486
57.7300 7562.6246
57.7400 7517.7408
57.7500 7454.0764
57.7600 7578.2934
57.7700 6872.1118
57.7800 7214.2986
57.7900 6652.2348
57.8000 7298.5604
57.8100 7192.0336
57.8200 7453.3586
57.8300 7161.0474
57.8400 7110.2180
57.8500 7366.7212
57.8600 7447.4862
57.8700 7284.4360
57.8800 7292.0712
57.8900 7325.7796
57.9000 7497.3820
57.9100 7103.2568
57.9200 7176.1068
57.9300 7049.9520
57.9400 7111.1840
57.9500 7424.7518
57.9600 7121.7854
57.9700 7370.6210
57.9800 7062.1110
57.9900 7191.2012
58.0000 7035.2352
58.0100 7221.4844
58.0200 7276.7732
58.0300 6984.0624
58.0400 7174.3742
58.0500 7102.1126
58.0600 7108.5026
58.0700 6957.2152
58.0800 7439.7290
58.0900 7119.4768
58.1000 6879.7746
58.1100 7425.5948
58.1200 7279.3424
58.1300 6890.5590
58.1400 7076.4998
58.1500 7163.1958
58.1600 7304.7168
58.1700 7194.6412
58.1800 6924.6842
58.1900 7281.6928
58.2000 7176.3712
58.2100 7220.9286
58.2200 7010.6820
58.2300 7370.7568
58.2400 7320.5834
58.2500 7123.8526
58.2600 7436.2818
58.2700 7183.1210
58.2800 7128.6874
58.2900 7123.3024
58.3000 6912.0808
58.3100 6964.2740
58.3200 6882.7670
58.3300 7171.0132
58.3400 7255.8902
58.3500 7299.0454
58.3600 7218.8282
58.3700 7212.0630
58.3800 7375.6600
58.3900 6998.7768
58.4000 7133.3138
58.4100 7467.7034
58.4200 7265.5542
58.4300 7325.9384
58.4400 7194.9812
58.4500 6937.2924
58.4600 6826.5162
58.4700 6931.3908
58.4800 7185.1856
58.4900 7471.8896
58.5000 7161.1678
58.5100 7053.9958
58.5200 7216.5120
58.5300 6903.2170
58.5400 7091.5772
58.5500 7492.3528
58.5600 7129.9528
58.5700 7072.2820
58.5800 7419.6484
58.5900 7166.2492
58.6000 7349.8788
58.6100 6964.6908
58.6200 7387.6832
58.6300 7487.0280
58.6400 7080.5876
58.6500 7060.8732
58.6600 7036.4128
58.6700 6769.8072
58.6800 6817.0610
58.6900 7366.1474
58.7000 6932.3226
58.7100 7340.3956
58.7200 7207.9664
58.7300 7247.9476
58.7400 7206.6918
58.7500 7293.8428
58.7600 6951.9726
58.7700 6679.5972
58.7800 6974.7526
58.7900 6962.4122
58.8000 7331.1076
58.8100 7228.0672
58.8200 7073.5074
58.8300 6950.2880
58.8400 7199.1830
58.8500 7193.3748
58.8600 7432.3014
58.8700 7324.6118
58.8800 7098.8004
58.8900 6809.5036
58.9000 7200.6510
58.9100 7315.4436
58.9200 7020.2254
58.9300 7023.0062
58.9400 7187.2688
58.9500 7043.4464
58.9600 6891.7904
58.9700 6981.8318
58.9800 7017.3332
58.9900 7218.8606
59.0000 7026.5544
59.0100 7099.0080
59.0200 7151.5356
59.0300 6687.0764
59.0400 6675.6104
59.0500 7019.2082
59.0600 7257.1460
59.0700 7358.8038
59.0800 7239.3230
59.0900 7386.9890
59.1000 7284.7322
59.1100 7221.5966
59.1200 7275.3124
59.1300 7029.5410
59.1400 6918.7744
59.1500 7209.8844
59.1600 6817.8288
59.1700 7147.2510
59.1800 6974.9788
59.1900 7031.7260
59.2000 7396.6586
59.2100 7346.0620
59.2200 7439.2366
59.2300 7090.4964
59.2400 7134.9130
59.2500 7160.5852
59.2600 7112.3738
59.2700 7060.1326
59.2800 6868.7068
59.2900 7009.4166
59.3000 6727.2628
59.3100 6385.1518
59.3200 7232.1744
59.3300 6884.0414
59.3400 6917.6758
59.3500 7009.3018
59.3600 7101.1182
59.3700 7392.9118
59.3800 7094.9154
59.3900 7036.1760
59.4000 7207.0662
59.4100 7004.3318
59.4200 7133.6702
59.4300 7014.3562
59.4400 7191.5772
59.4500 7122.9574
59.4600 7095.2710
59.4700 6931.3306
59.4800 6910.4558
59.4900 6959.9838
59.5000 7001.7066
59.5100 6879.4898
59.5200 6743.4786
59.5300 6798.5282
59.5400 7183.4188
59.5500 7464.8422
59.5600 7156.6740
59.5700 7046.7180
59.5800 7299.1202
59.5900 7153.6052
59.6000 7313.3308
59.6100 6929.8666
59.6200 7194.4060
59.6300 7183.8656
59.6400 7301.6748
59.6500 7248.1372
59.6600 7072.1770
59.6700 7294.4800
59.6800 7101.0530
59.6900 7044.4514
59.7000 7644.2854
59.7100 7366.4892
59.7200 7083.2186
59.7300 6854.5214
59.7400 7163.0582
59.7500 7138.0656
59.7600 7237.8662
59.7700 7255.2042
59.7800 7137.1452
59.7900 6968.2202
59.8000 7672.1102
59.8100 7271.0580
59.8200 7071.2492
59.8300 7243.4724
59.8400 7183.3440
59.8500 7166.3460
59.8600 6799.0064
59.8700 7240.6884
59.8800 7749.9000
59.8900 7194.0966
59.9000 7167.0484
59.9100 7377.9558
59.9200 7157.6652
59.9300 7305.0578
59.9400 7430.4654
59.9500 7042.0272
59.9600 6969.5800
59.9700 7096.6456
59.9800 7406.5502
59.9900 6907.7726
60.0000 7457.8988
60.0100 7405.9912
60.0200 6583.2256
60.0300 6723.2532
60.0400 7179.4710
60.0500 6598.8472
60.0600 7007.2388
60.0700 7136.4298
60.0800 7019.2278
60.0900 7070.9594
60.1000 6919.2504
60.1100 7068.5100
60.1200 7487.1770
60.1300 7257.2566
60.1400 7267.1932
60.1500 7318.8176
60.1600 6911.1434
60.1700 6817.0496
60.1800 7293.0958
60.1900 6974.3774
60.2000 6931.6610
60.2100 7064.0088
60.2200 6786.9316
60.2300 6811.1690
60.2400 6914.5272
60.2500 6930.6788
60.2600 7143.7476
60.2700 7080.5704
60.2800 6959.6272
60.2900 6729.0722
60.3000 6724.1248
60.3100 6873.4970
60.3200 7328.6272
60.3300 7139.1316
60.3400 7089.2578
60.3500 6984.0218
60.3600 7121.9760
60.3700 7270.0212
60.3800 6947.4398
60.3900 6917.8158
60.4000 6999.8600
60.4100 6823.5970
60.4200 6882.5634
60.4300 6829.5346
60.4400 7071.9270
60.4500 7082.2558
60.4600 6945.0692
60.4700 7290.6730
60.4800 6872.6806
60.4900 6842.4796
60.5000 6950.1490
60.5100 7401.5804
60.5200 7131.4128
60.5300 7405.6486
60.5400 7241.8098
60.5500 6909.8788
60.5600 7098.3326
60.5700 6867.8524
60.5800 6922.0036
60.5900 7216.4274
60.6000 6934.2496
60.6100 6951.3086
60.6200 6693.2076
60.6300 6975.2986
60.6400 7074.7656
60.6500 6864.2302
60.6600 6910.4786
60.6700 6982.4080
60.6800 7028.4766
60.6900 7231.7342
60.7000 6736.8176
60.7100 6864.6874
60.7200 6881.6854
60.7300 6926.6398
60.7400 7413.7574
60.7500 7484.7714
60.7600 6841.3704
60.7700 6878.7810
60.7800 7087.4496
60.7900 7290.3296
60.8000 7039.1244
60.8100 7341.9068
60.8200 7204.3026
60.8300 7485.0048
60.8400 7294.2636
60.8500 7178.4888
60.8600 7131.7928
60.8700 6937.6774
60.8800 7271.6098
60.8900 6686.2988
60.9000 6926.3948
60.9100 6705.4362
60.9200 6786.5748
60.9300 6622.6986
60.9400 6799.4784
60.9500 6591.7754
60.9600 6962.3690
60.9700 6910.0236
60.9800 6946.6878
60.9900 7007.2998
61.0000 6912.6456
61.0100 6853.1144
61.0200 6738.0494
61.0300 6911.4120
61.0400 7235.7584
61.0500 6995.2474
61.0600 7154.7160
61.0700 7115.5046
61.0800 7112.0744
61.0900 6788.2048
61.1000 6946.2768
61.1100 7195.3296
61.1200 6977.3430
61.1300 7189.7428
61.1400 7129.5582
61.1500 7332.3544
61.1600 7362.4910
61.1700 7152.7792
61.1800 7256.3786
61.1900 6929.5540
61.2000 7106.0490
61.2100 6883.4026
61.2200 6594.5870
61.2300 6673.4730
61.2400 6688.7806
61.2500 6855.0024
61.2600 7079.0226
61.2700 6716.9864
61.2800 7061.3118
61.2900 7401.5430
61.3000 6949.1772
61.3100 7183.7882
61.3200 7375.3116
61.3300 7310.4362
61.3400 6757.9870
61.3500 7317.6106
61.3600 7266.6512
61.3700 7100.6892
61.3800 7075.2898
61.3900 6575.6230
61.4000 7286.5048
61.4100 7369.4694
61.4200 7344.0128
61.4300 7236.3378
61.4400 6985.1148
61.4500 6960.7080
61.4600 6773.5970
61.4700 6709.8238
61.4800 7138.5888
61.4900 7063.8510
61.5000 6823.3784
61.5100 6609.6476
61.5200 6908.8314
61.5300 6951.9002
61.5400 6943.9672
61.5500 7227.3202
61.5600 7031.7236
61.5700 7129.6166
61.5800 7182.2868
61.5900 7328.7118
61.6000 6939.0552
61.6100 7253.7548
61.6200 7286.3746
61.6300 6935.3622
61.6400 6889.7534
61.6500 6779.7490
61.6600 7286.8416
61.6700 7387.1280
61.6800 6752.9512
61.6900 7368.3642
61.7000 6840.9196
61.7100 7375.8536
61.7200 7125.1114
61.7300 7231.1858
61.7400 7192.1158
61.7500 7064.3538
61.7600 7048.2186
61.7700 7417.0206
61.7800 6979.3864
61.7900 6920.7584
61.8000 6789.2370
61.8100 7377.4520
61.8200 7101.6682
61.8300 7178.0730
61.8400 6960.2628
61.8500 7087.0084
61.8600 6732.7364
61.8700 7013.9258
61.8800 6961.8580
61.8900 7313.2446
61.9000 7113.9916
61.9100 6970.8992
61.9200 7228.9608
61.9300 6755.6766
61.9400 6965.8846
61.9500 7211.1140
61.9600 7192.9468
61.9700 7184.9414
61.9800 7047.3796
61.9900 7170.8586
62.0000 7398.3122
62.0100 6965.7836
62.0200 7213.7394
62.0300 7065.2180
62.0400 6763.6906
62.0500 7120.9822
62.0600 6901.0042
62.0700 6978.5230
62.0800 7123.1332
62.0900 7204.8632
62.1000 7213.6368
62.1100 6857.0572
62.1200 7244.5768
62.1300 7182.1834
62.1400 6957.7636
62.1500 6912.0232
62.1600 6850.8830
62.1700 7206.9506
62.1800 7205.2776
62.1900 7175.0764
62.2000 6777.2416
62.2100 7337.3454
62.2200 6875.0382
62.2300 6905.1774
62.2400 6712.7722
62.2500 6924.4646
62.2600 7037.5398
62.2700 7121.1898
62.2800 6807.9036
62.2900 6979.1122
62.3000 7039.3408
62.3100 7058.9916
62.3200 6844.1496
62.3300 7298.8696
62.3400 7109.2986
62.3500 7134.5590
62.3600 7383.2348
62.3700 6736.7142
62.3800 6675.0394
62.3900 6922.9744
62.4000 7084.3148
62.4100 7337.0556
62.4200 6808.8480
62.4300 7327.7840
62.4400 7223.1860
62.4500 6867.6140
62.4600 7577.2908
62.4700 7061.5486
62.4800 7245.1180
62.4900 7113.9420
62.5000 7437.1932
62.5100 7344.2050
62.5200 7011.6072
62.5300 7134.4890
62.5400 7118.3106
62.5500 7053.8118
62.5600 7346.3916
62.5700 6958.0094
62.5800 7276.7602
62.5900 7330.8520
62.6000 7111.8270
62.6100 7142.8190
62.6200 7304.3108
62.6300 7350.1660
62.6400 7378.6246
62.6500 7371.3290
62.6600 7394.4132
62.6700 7000.9628
62.6800 7255.1026
62.6900 7495.9374
62.7000 7470.8528
62.7100 7105.0538
62.7200 7461.0442
62.7300 7196.9418
62.7400 6951.1386
62.7500 6806.6740
62.7600 7535.9676
62.7700 7561.8238
62.7800 7218.0380
62.7900 7130.8684
62.8000 7422.5432
62.8100 7395.8878
62.8200 7550.6820
62.8300 7231.1694
62.8400 7142.4324
62.8500 7611.3582
62.8600 7151.8628
62.8700 7071.8604
62.8800 7173.7792
62.8900 7250.3190
62.9000 7223.3902
62.9100 7212.0336
62.9200 7085.3842
62.9300 7313.6752
62.9400 7362.9736
62.9500 7337.5642
62.9600 7460.3378
62.9700 6970.2800
62.9800 7294.8202
62.9900 7215.1506
63.0000 7297.1614
63.0100 7068.9860
63.0200 7120.7910
63.0300 6930.2156
63.0400 7062.5350
63.0500 7164.7990
63.0600 7280.5616
63.0700 7148.2870
63.0800 7261.5276
63.0900 7434.2766
63.1000 7020.1994
63.1100 7168.6996
63.1200 6915.4166
63.1300 7062.5676
63.1400 7068.7338
63.1500 7125.7828
63.1600 6537.8552
63.1700 7124.2692
63.1800 7121.6390
63.1900 7190.6478
63.2000 7238.7256
63.2100 7435.5136
63.2200 7116.7180
63.2300 7368.7720
63.2400 7148.3008
63.2500 7400.1718
63.2600 7041.2012
63.2700 7184.9698
63.2800 7236.9320
63.2900 7369.4148
63.3000 7431.0694
63.3100 7566.4014
63.3200 7497.3828
63.3300 7222.6530
63.3400 6966.4558
63.3500 7498.9208
63.3600 7403.6760
63.3700 7615.8626
63.3800 7211.2484
63.3900 7757.1744
63.4000 7754.0870
63.4100 7572.2306
63.4200 7653.9258
63.4300 7617.9524
63.4400 7549.1806
63.4500 7825.6478
63.4600 7656.4356
63.4700 7667.2372
63.4800 7731.9076
63.4900 7594.9414
63.5000 7633.4628
63.5100 7807.9794
63.5200 7668.9014
63.5300 7732.7962
63.5400 7695.3580
63.5500 7574.1114
63.5600 7674.3970
63.5700 7576.8018
63.5800 7813.5954
63.5900 7688.7574
63.6000 7222.6620
63.6100 7633.8826
63.6200 7912.9192
63.6300 7519.3612
63.6400 7781.1508
63.6500 7445.9774
63.6600 7435.0904
63.6700 7810.0774
63.6800 7127.5928
63.6900 7489.5240
63.7000 7595.0642
63.7100 7321.0538
63.7200 7286.9670
63.7300 7199.1210
63.7400 7264.3766
63.7500 7066.5674
63.7600 7149.2716
63.7700 6891.9962
63.7800 7443.1348
63.7900 7508.7102
63.8000 7132.0858
63.8100 7296.3500
63.8200 7439.8202
63.8300 6842.4698
63.8400 7032.4610
63.8500 7438.1298
63.8600 7130.3484
63.8700 7078.3024
63.8800 7246.8116
63.8900 7198.6548
63.9000 6979.9658
63.9100 7127.2566
63.9200 7351.3476
63.9300 7139.8796
63.9400 7292.4032
63.9500 7284.1822
63.9600 6719.3714
63.9700 6970.2832
63.9800 6938.8070
63.9900 7142.2014
64.0000 6980.4786
64.0100 7165.6210
64.0200 7292.7238
64.0300 7149.9576
64.0400 6475.4764
64.0500 6903.3090
64.0600 6665.2038
64.0700 7221.6300
64.0800 7184.0258
64.0900 6812.7018
64.1000 7572.3674
64.1100 6997.8158
64.1200 6827.9410
64.1300 7011.0156
64.1400 7083.8884
64.1500 7278.6140
64.1600 7063.9860
64.1700 7104.1830
64.1800 7117.3600
64.1900 7113.7052
64.2000 6804.5996
64.2100 6904.4002
64.2200 7272.0256
64.2300 6828.9258
64.2400 6898.0940
64.2500 6945.7308
64.2600 6905.7772
64.2700 7028.9844
64.2800 6948.2682
64.2900 6993.2496
64.3000 7171.9336
64.3100 6822.0320
64.3200 6881.2052
64.3300 7120.6656
64.3400 6852.4618
64.3500 7070.9138
64.3600 7080.9978
64.3700 7359.3734
64.3800 6985.7496
64.3900 6903.2104
64.4000 7095.0106
64.4100 7092.8394
64.4200 6761.9852
64.4300 6875.1098
64.4400 6885.3914
64.4500 6657.4902
64.4600 6833.8192
64.4700 7247.7270
64.4800 6715.9712
64.4900 6769.4638
64.5000 6865.7958
64.5100 6782.0740
64.5200 7156.5178
64.5300 7088.6914
64.5400 7316.0774
64.5500 6933.8736
64.5600 6752.2266
64.5700 6628.2544
64.5800 7000.4264
64.5900 7297.5520
64.6000 7277.6514
64.6100 7069.7950
64.6200 6817.9432
64.6300 6976.8026
64.6400 6926.5942
64.6500 6708.5616
64.6600 6922.5952
64.6700 7028.5628
64.6800 6979.9902
64.6900 6884.5190
64.7000 7315.6608
64.7100 7112.8492
64.7200 7142.8996
64.7300 6747.8638
64.7400 6709.8278
64.7500 7068.3740
64.7600 7024.3302
64.7700 6953.5214
64.7800 6863.9706
64.7900 7048.4350
64.8000 7104.1276
64.8100 6868.1552
64.8200 7065.6234
64.8300 7074.7966
64.8400 6757.4922
64.8500 6731.8816
64.8600 6797.7670
64.8700 6659.8772
64.8800 7269.6794
64.8900 7046.9320
64.9000 6891.9052
64.9100 6642.9846
64.9200 6704.0922
64.9300 7187.8002
64.9400 6779.2090
64.9500 6520.0590
64.9600 6690.7264
64.9700 6842.2046
64.9800 6816.7134
64.9900 6966.1190
65.0000 7326.1280
65.0100 7024.3612
65.0200 6657.0056
65.0300 6879.5134
65.0400 7029.3302
65.0500 7324.5084
65.0600 7352.7416
65.0700 6927.5292
65.0800 6835.4200
65.0900 6877.2746
65.1000 7004.4996
65.1100 7054.6964
65.1200 7110.5608
65.1300 7094.5232
65.1400 6931.6716
65.1500 6952.1550
65.1600 6819.3448
65.1700 6881.4022
65.1800 7112.0694
65.1900 7107.4202
65.2000 6884.9894
65.2100 6809.9426
65.2200 7103.9558
65.2300 6756.8612
65.2400 6892.6692
65.2500 7315.8602
65.2600 6905.5494
65.2700 7512.5920
65.2800 7374.1806
65.2900 6754.1342
65.3000 6826.6020
65.3100 6978.0420
65.3200 7072.7670
65.3300 7167.0638
65.3400 7005.3312
65.3500 7172.6262
65.3600 6991.8066
65.3700 7282.2672
65.3800 6787.3780
65.3900 7171.9490
65.4000 7170.8806
65.4100 7002.7726
65.4200 6876.9548
65.4300 7232.1078
65.4400 7159.2888
65.4500 7335.6038
65.4600 7354.4352
65.4700 7536.5568
65.4800 6796.8628
65.4900 6950.2644
65.5000 7397.0524
65.5100 7097.3324
65.5200 6955.2222
65.5300 6972.2486
65.5400 6852.0704
65.5500 7069.6786
65.5600 7085.7146
65.5700 7154.8396
65.5800 7159.1952
65.5900 6681.6736
65.6000 7393.7452
65.6100 7160.3532
65.6200 6853.2364
65.6300 7124.2716
65.6400 6913.9934
65.6500 7274.8576
65.6600 7104.9968
65.6700 7125.1954
65.6800 7255.1066
65.6900 7003.4750
65.7000 6782.6936
65.7100 7282.7734
65.7200 7531.5014
65.7300 7121.4030
65.7400 7304.9748
65.7500 7216.5316
65.7600 7428.9250
65.7700 7046.6464
65.7800 7375.6438
65.7900 7232.4422
65.8000 7149.7762
65.8100 6893.1552
65.8200 7262.4138
65.8300 7089.4190
65.8400 7093.1518
65.8500 6880.3914
65.8600 7040.5412
65.8700 7543.7932
65.8800 7457.2120
65.8900 7161.4828
65.9000 7423.5556
65.9100 6738.5800
65.9200 7123.7320
65.9300 6895.1896
65.9400 7245.0114
65.9500 7004.8844
65.9600 7221.7822
65.9700 7238.8632
65.9800 7145.4086
65.9900 6959.1528
66.0000 7254.7640
66.0100 7177.2348
66.0200 7255.1880
66.0300 7244.7876
66.0400 6812.7316
66.0500 7108.9372
66.0600 7444.1162
66.0700 7510.2092
66.0800 7004.2042
66.0900 7007.6832
66.1000 7255.1668
66.1100 7501.2802
66.1200 7386.0458
66.1300 7329.9804
66.1400 7236.9694
66.1500 6977.5146
66.1600 7268.1950
66.1700 7264.4686
66.1800 7135.4476
66.1900 7289.5166
66.2000 7169.1732
66.2100 6871.2874
66.2200 7189.3050
66.2300 7266.4070
66.2400 6920.3964
66.2500 7047.8230
66.2600 7148.1030
66.2700 7027.4202
66.2800 6933.0624
66.2900 7081.3728
66.3000 7210.6412
66.3100 7427.8084
66.3200 7039.5028
66.3300 6959.3466
66.3400 7123.7296
66.3500 7326.4640
66.3600 7055.0374
66.3700 7187.7344
66.3800 6988.9364
66.3900 7383.2610
66.4000 7253.5132
66.4100 7039.0992
66.4200 7645.8276
66.4300 7169.2944
66.4400 7445.5266
66.4500 7088.4016
66.4600 7244.1512
66.4700 7457.9500
66.4800 7033.4366
66.4900 7502.8686
66.5000 7154.6224
66.5100 7137.8572
66.5200 7160.4956
66.5300 7089.3212
66.5400 7310.8764
66.5500 7566.1564
66.5600 7230.3492
66.5700 7592.4690
66.5800 7647.7962
66.5900 7764.0584
66.6000 7689.3832
66.6100 7674.1886
66.6200 7784.3758
66.6300 7956.8302
66.6400 8027.3942
66.6500 7882.9866
66.6600 7767.6236
66.6700 7890.4574
66.6800 7867.3934
66.6900 8256.0262
66.7000 8321.7652
66.7100 8438.2374
66.7200 8299.2944
66.7300 8239.2724
66.7400 8255.7878
66.7500 8616.1824
66.7600 8556.9262
66.7700 8328.7126
66.7800 8632.5236
66.7900 9096.8196
66.8000 8453.6052
66.8100 8951.1686
66.8200 9449.3782
66.8300 9102.2770
66.8400 9326.3274
66.8500 9414.8632
66.8600 9436.2476
66.8700 9510.1822
66.8800 9176.6682
66.8900 9910.8244
66.9000 9463.8038
66.9100 9560.0610
66.9200 9534.0048
66.9300 9974.4376
66.9400 9231.0914
66.9500 9957.9866
66.9600 9769.3188
66.9700 9611.1744
66.9800 9994.7820
66.9900 10184.9934
67.0000 9866.9108
67.0100 9905.6412
67.0200 10273.8998
67.0300 10712.5350
67.0400 10511.5112
67.0500 10544.0022
67.0600 10626.7562
67.0700 10795.1538
67.0800 10981.6952
67.0900 10912.7832
67.1000 11250.9130
67.1100 11182.1932
67.1200 11062.8378
67.1300 11359.5084
67.1400 11441.9392
67.1500 11577.6692
67.1600 11185.2620
67.1700 10966.7042
67.1800 11346.8222
67.1900 11823.8232
67.2000 11625.3670
67.2100 11654.5004
67.2200 11735.7926
67.2300 11437.4438
67.2400 11584.4498
67.2500 11855.0276
67.2600 11908.5432
67.2700 11873.4700
67.2800 11670.5730
67.2900 11229.4288
67.3000 11480.5860
67.3100 11704.7086
67.3200 11625.3060
67.3300 11149.1194
67.3400 11111.0124
67.3500 11859.3880
67.3600 11106.0034
67.3700 11389.3066
67.3800 11431.5512
67.3900 10837.4724
67.4000 10736.5364
67.4100 10496.4632
67.4200 10406.9246
67.4300 9899.9308
67.4400 9987.5586
67.4500 10488.9274
67.4600 10008.2032
67.4700 9497.1550
67.4800 9761.4120
67.4900 9775.2986
67.5000 9721.2492
67.5100 9020.0790
67.5200 9020.6218
67.5300 8713.1998
67.5400 9112.3942
67.5500 8442.4236
67.5600 8459.7868
67.5700 8585.3686
67.5800 8309.4978
67.5900 8241.1500
67.6000 8215.5844
67.6100 8002.5602
67.6200 8185.3458
67.6300 8032.0866
67.6400 8059.6362
67.6500 7769.6298
67.6600 7545.1286
67.6700 7819.9300
67.6800 7621.2614
67.6900 7704.3620
67.7000 7718.6304
67.7100 7479.5694
67.7200 7682.0280
67.7300 7640.2636
67.7400 7453.9200
67.7500 7604.4524
67.7600 6734.8922
67.7700 7453.0598
67.7800 7351.2916
67.7900 7037.4544
67.8000 7463.3318
67.8100 7295.0000
67.8200 6963.3586
67.8300 7131.5364
67.8400 7306.9368
67.8500 7484.0276
67.8600 7016.1344
67.8700 7209.9332
67.8800 7411.0164
67.8900 6958.1966
67.9000 6925.2458
67.9100 7443.6402
67.9200 7284.1830
67.9300 7202.6970
67.9400 7153.0518
67.9500 7371.7432
67.9600 7293.1526
67.9700 6659.5354
67.9800 6751.4864
67.9900 6863.3472
68.0000 7723.4970
68.0100 7390.6038
68.0200 7587.8028
68.0300 7197.3324
68.0400 7179.2302
68.0500 7082.9720
68.0600 7110.1246
68.0700 7179.5826
68.0800 7412.0670
68.0900 7309.5434
68.1000 7394.5548
68.1100 7251.6406
68.1200 7120.0048
68.1300 6896.9124
68.1400 7024.9056
68.1500 7593.7288
68.1600 7092.4960
68.1700 7190.2662
68.1800 7598.9160
68.1900 7297.8020
68.2000 7036.2460
68.2100 7118.7256
68.2200 7357.0426
68.2300 6984.0422
68.2400 7069.7030
68.2500 7059.8404
68.2600 6804.9316
68.2700 6990.2588
68.2800 6988.5230
68.2900 7443.9812
68.3000 7465.0292
68.3100 7193.0608
68.3200 7063.9672
68.3300 7254.8014
68.3400 7225.6088
68.3500 7187.3502
68.3600 7282.8874
68.3700 7136.6854
68.3800 7183.8028
68.3900 7043.7444
68.4000 7004.8348
68.4100 7107.9696
68.4200 7003.4302
68.4300 7169.7770
68.4400 7097.1428
68.4500 7183.0712
68.4600 7248.6532
68.4700 6960.9374
68.4800 6898.0338
68.4900 7099.9454
68.5000 7327.6758
68.5100 7415.8358
68.5200 7094.7892
68.5300 7105.2026
68.5400 7239.7086
68.5500 6809.1358
68.5600 7065.9488
68.5700 6855.7642
68.5800 6760.4216
68.5900 6820.2434
68.6000 6779.5964
68.6100 7395.0700
68.6200 7069.6614
68.6300 6954.4750
68.6400 7253.2096
68.6500 7069.1692
68.6600 7117.5424
68.6700 7012.0948
68.6800 7000.9612
68.6900 7131.5560
68.7000 6792.9260
68.7100 7046.1010
68.7200 6841.0718
68.7300 6695.5852
68.7400 7098.8868
68.7500 6930.8798
68.7600 7000.4550
68.7700 7403.7882
68.7800 6939.3790
68.7900 7177.1240
68.8000 7107.1346
68.8100 7073.2836
68.8200 6675.3210
68.8300 7199.5792
68.8400 6913.1876
68.8500 6810.3382
68.8600 6700.6328
68.8700 6651.2122
68.8800 6767.0622
68.8900 7220.7250
68.9000 7048.5066
68.9100 6957.0940
68.9200 6772.8052
68.9300 6666.0380
68.9400 6900.3248
68.9500 6863.0696
68.9600 6596.8250
68.9700 7073.3512
68.9800 7109.8544
68.9900 6536.3138
69.0000 6893.8550
69.0100 6523.4038
69.0200 7067.1850
69.0300 6848.4994
69.0400 7045.2058
69.0500 7103.3928
69.0600 6888.2772
69.0700 6811.8856
69.0800 7227.5318
69.0900 6855.3736
69.1000 6945.7690
69.1100 6772.0382
69.1200 6974.3172
69.1300 6952.7426
69.1400 6790.1282
69.1500 6726.4502
69.1600 7111.6334
69.1700 6731.8580
69.1800 6878.8900
69.1900 6767.7038
69.2000 7115.7674
69.2100 6958.0510
69.2200 6978.0468
69.2300 6986.6976
69.2400 6753.2272
69.2500 6700.2266
69.2600 7059.0170
69.2700 7153.1364
69.2800 6718.7208
69.2900 6889.3970
69.3000 6932.6814
69.3100 7015.8626
69.3200 6856.8318
69.3300 6871.0580
69.3400 6772.0906
69.3500 6577.6346
69.3600 6545.5704
69.3700 6855.4622
69.3800 6844.5622
69.3900 6769.4840
69.4000 6977.1924
69.4100 6761.1426
69.4200 6692.4630
69.4300 7277.4796
69.4400 6958.7110
69.4500 7345.6910
69.4600 6868.2976
69.4700 6996.4770
69.4800 7133.0542
69.4900 7086.0896
69.5000 6747.5158
69.5100 6714.0048
69.5200 6755.3934
69.5300 6865.8814
69.5400 6476.5276
69.5500 6876.1564
69.5600 6768.9730
69.5700 7031.4868
69.5800 6790.5224
69.5900 7031.5276
69.6000 6734.5158
69.6100 7129.5378
69.6200 6969.8600
69.6300 6843.5734
69.6400 6876.6244
69.6500 7112.3584
69.6600 6998.5612
69.6700 6726.4680
69.6800 6582.6652
69.6900 6491.0828
69.7000 6977.8866
69.7100 6846.9140
69.7200 7118.8712
69.7300 6708.5946
69.7400 6911.7578
69.7500 6925.2368
69.7600 6563.6442
69.7700 6992.6464
69.7800 6866.9034
69.7900 7173.1820
69.8000 7035.4964
69.8100 6691.0140
69.8200 7096.5772
69.8300 6417.6486
69.8400 7067.7018
69.8500 6826.6488
69.8600 7117.4292
69.8700 6626.3912
69.8800 6901.1060
69.8900 6977.8434
69.9000 6874.3278
69.9100 6905.8350
69.9200 6941.5380
69.9300 7268.1926
69.9400 6655.4618
69.9500 6964.1374
69.9600 6828.8876
69.9700 6993.6036
69.9800 7214.1316
69.9900 6882.5668
70.0000 7038.7792
70.0100 6953.0354
70.0200 6878.0258
70.0300 6696.1552
70.0400 6805.7260
70.0500 6641.6796
70.0600 6869.4344
70.0700 7005.1970
70.0800 7054.1870
70.0900 6729.4300
70.1000 6837.9330
70.1100 7293.0746
70.1200 6799.2976
70.1300 7044.9040
70.1400 7019.1780
70.1500 6958.5580
70.1600 7233.4660
70.1700 7087.2348
70.1800 7027.0834
70.1900 7089.6110
70.2000 6482.7002
70.2100 7021.4526
70.2200 6886.4412
70.2300 6968.9608
70.2400 6604.2508
70.2500 7021.2484
70.2600 7177.3168
70.2700 7320.1384
70.2800 7152.2094
70.2900 6725.1608
70.3000 6661.3306
70.3100 6919.2766
70.3200 7301.4746
70.3300 6970.5372
70.3400 7109.2618
70.3500 6853.3634
70.3600 6979.6874
70.3700 6873.9258
70.3800 6842.4804
70.3900 6707.3230
70.4000 7064.3302
70.4100 6644.2680
70.4200 6853.7198
70.4300 6976.1832
70.4400 6956.6716
70.4500 6995.5004
70.4600 6803.7126
70.4700 7010.1734
70.4800 6854.4458
70.4900 7163.8680
70.5000 6970.4908
70.5100 6721.0246
70.5200 6493.8500
70.5300 7097.5472
70.5400 6822.3446
70.5500 6948.2732
70.5600 6963.1364
70.5700 6833.6548
70.5800 6826.6202
70.5900 6833.6882
70.6000 6436.4824
70.6100 7038.5466
70.6200 6689.1000
70.6300 6633.8932
70.6400 6829.9682
70.6500 7053.7410
70.6600 7080.2376
70.6700 6952.4504
70.6800 6835.7854
70.6900 6466.3786
70.7000 6470.4802
70.7100 7098.8070
70.7200 7149.7892
70.7300 6897.6652
70.7400 7004.0520
70.7500 6961.1272
70.7600 6847.6636
70.7700 6746.6342
70.7800 7023.1844
70.7900 6690.7462
70.8000 6766.5292
70.8100 6801.5624
70.8200 6876.2712
70.8300 7158.6410
70.8400 6835.6062
70.8500 6841.7382
70.8600 6711.0096
70.8700 6986.1760
70.8800 7004.2758
70.8900 6878.0224
70.9000 6393.6028
70.9100 6768.4716
70.9200 6878.8672
70.9300 6941.9140
70.9400 6950.4630
70.9500 6788.4330
70.9600 6838.8306
70.9700 6873.7906
70.9800 7084.6306
70.9900 6791.2020
71.0000 7211.2728
71.0100 6746.5026
71.0200 7064.2058
71.0300 7038.3464
71.0400 7052.4446
71.0500 6807.9952
71.0600 7369.0788
71.0700 6707.7990
71.0800 7022.7758
71.0900 7141.8222
71.1000 7095.1302
71.1100 6597.0096
71.1200 7139.2260
71.1300 6695.8630
71.1400 6894.8886
71.1500 7142.0792
71.1600 7125.3304
71.1700 7180.8692
71.1800 7260.4436
71.1900 7085.2888
71.2000 6724.0780
71.2100 7008.1022
71.2200 6866.7806
71.2300 6778.5686
71.2400 6805.5014
71.2500 6840.4110
71.2600 7008.2504
71.2700 6660.3890
71.2800 6664.0744
71.2900 7036.7204
71.3000 6991.5674
71.3100 6731.8762
71.3200 7338.3480
71.3300 6620.3088
71.3400 7058.9200
71.3500 6925.3598
71.3600 7017.3022
71.3700 6788.1730
71.3800 6833.4098
71.3900 6443.9380
71.4000 6918.3398
71.4100 6643.3562
71.4200 7058.3284
71.4300 7084.3482
71.4400 6813.4856
71.4500 6900.2336
71.4600 6683.8330
71.4700 7121.5462
71.4800 6882.2794
71.4900 6764.2180
71.5000 6850.8440
71.5100 6982.0320
71.5200 6993.8484
71.5300 6782.6668
71.5400 7006.5894
71.5500 6682.4222
71.5600 6843.0022
71.5700 6865.0358
71.5800 6975.4240
71.5900 6841.8010
71.6000 6917.1778
71.6100 7111.9670
71.6200 7192.8142
71.6300 7063.7606
71.6400 6810.0512
71.6500 6914.4580
71.6600 6904.3702
71.6700 7085.9424
71.6800 6726.7590
71.6900 6883.6140
71.7000 6852.9182
71.7100 6998.0094
71.7200 6976.5300
71.7300 6997.3056
71.7400 7052.7116
71.7500 7120.9944
71.7600 6979.7974
71.7700 7178.4530
71.7800 6778.5576
71.7900 6794.1898
71.8000 7252.3544
71.8100 7040.4004
71.8200 6958.1340
71.8300 7126.2044
71.8400 7251.8694
71.8500 6949.0878
71.8600 7030.5786
71.8700 7365.5534
71.8800 7280.3988
71.8900 7026.3810
71.9000 7273.9974
71.9100 6903.4838
71.9200 7292.2192
71.9300 6955.5860
71.9400 7108.4374
71.9500 7220.5884
71.9600 7008.7036
71.9700 7512.4112
71.9800 7582.2030
71.9900 7361.9768
72.0000 6963.2178
72.0100 7081.9734
72.0200 7163.8614
72.0300 7289.3938
72.0400 7396.8522
72.0500 7126.2916
72.0600 6824.2688
72.0700 7226.7912
72.0800 7140.1954
72.0900 7140.6998
72.1000 6915.3556
72.1100 7005.4932
72.1200 6826.6390
72.1300 7167.5862
72.1400 6916.6244
72.1500 7206.4454
72.1600 7462.7840
72.1700 7377.4024
72.1800 7251.8840
72.1900 7076.5852
72.2000 7010.6534
72.2100 6916.2418
72.2200 7420.4428
72.2300 7464.9048
72.2400 6871.8806
72.2500 7204.3962
72.2600 7305.3694
72.2700 6963.5514
72.2800 6913.5310
72.2900 7146.2524
72.3000 7027.1150
72.3100 7350.4882
72.3200 7087.0906
72.3300 7269.4962
72.3400 7141.4998
72.3500 6728.2768
72.3600 6727.8816
72.3700 7074.0926
72.3800 6692.7860
72.3900 7019.7200
72.4000 7002.5618
72.4100 6858.2870
72.4200 7143.3366
72.4300 7265.3158
72.4400 7277.0232
72.4500 7218.3870
72.4600 6682.0134
72.4700 6552.7076
72.4800 6939.6826
72.4900 6841.2752
72.5000 6586.8946
72.5100 6884.4384
72.5200 6755.4114
72.5300 6795.3256
72.5400 6691.6890
72.5500 6789.7144
72.5600 7094.7706
72.5700 6711.5368
72.5800 6731.8436
72.5900 7059.7014
72.6000 6925.4882
72.6100 6730.5888
72.6200 7018.1666
72.6300 6928.9820
72.6400 6927.8248
72.6500 6838.1404
72.6600 6819.7810
72.6700 6846.1744
72.6800 7043.7402
72.6900 6668.9100
72.7000 6831.9368
72.7100 6871.5398
72.7200 6973.5222
72.7300 6722.7548
72.7400 6864.3466
72.7500 7052.4960
72.7600 6838.2764
72.7700 6786.8416
72.7800 7016.5096
72.7900 6726.6760
72.8000 7124.4986
72.8100 6964.5638
72.8200 6841.4730
72.8300 6541.3916
72.8400 6638.9046
72.8500 6836.9742
72.8600 6908.9014
72.8700 6787.3666
72.8800 6840.6788
72.8900 6922.2722
72.9000 6857.4024
72.9100 6828.7924
72.9200 6768.1494
72.9300 6767.5744
72.9400 7097.3300
72.9500 6886.1288
72.9600 7107.8442
72.9700 6821.6796
72.9800 6984.2570
72.9900 6804.1692
73.0000 7189.4254
73.0100 6698.6170
73.0200 6537.7522
73.0300 6738.6096
73.0400 6757.7698
73.0500 7011.5340
73.0600 7254.6744
73.0700 6696.3232
73.0800 6648.7260
73.0900 7019.5426
73.1000 7257.0500
73.1100 7211.4828
73.1200 6578.9786
73.1300 6876.4494
73.1400 7172.1150
73.1500 7034.1398
73.1600 6911.0832
73.1700 6903.2284
73.1800 6871.6350
73.1900 6980.5420
73.2000 6788.9816
73.2100 6631.0144
73.2200 6846.0506
73.2300 7071.7822
73.2400 7056.3020
73.2500 6944.0276
73.2600 7149.9122
73.2700 7144.2042
73.2800 6918.2878
73.2900 6629.7620
73.3000 6632.2086
73.3100 6974.7836
73.3200 6813.1246
73.3300 6948.7654
73.3400 6644.9720
73.3500 6426.5108
73.3600 6881.2452
73.3700 6894.4970
73.3800 6620.7300
73.3900 6960.5802
73.4000 6797.3742
73.4100 6621.6642
73.4200 6989.3684
73.4300 7055.5590
73.4400 6875.4200
73.4500 6741.7460
73.4600 7071.3404
73.4700 7068.3586
73.4800 7016.6276
73.4900 6725.3862
73.5000 6923.0346
73.5100 7272.1298
73.5200 6753.3692
73.5300 6668.6612
73.5400 6926.9116
73.5500 6844.8372
73.5600 6589.7286
73.5700 6872.8410
73.5800 7483.6638
73.5900 7173.9804
73.6000 6713.6158
73.6100 6871.7904
73.6200 7052.5342
73.6300 6824.9732
73.6400 6639.7904
73.6500 7095.8544
73.6600 7115.1888
73.6700 6706.0202
73.6800 6734.9500
73.6900 6611.4136
73.7000 6514.2298
73.7100 6680.8814
73.7200 6827.0654
73.7300 7068.3822
73.7400 6940.0040
73.7500 6862.9858
73.7600 6772.5992
73.7700 7317.8100
73.7800 7119.5964
73.7900 6948.4814
73.8000 6846.3860
73.8100 6860.2442
73.8200 7044.0600
73.8300 6833.2950
73.8400 6846.7448
73.8500 6940.0146
73.8600 6874.5304
73.8700 6711.2362
73.8800 6743.2630
73.8900 6575.8312
73.9000 6632.5936
73.9100 6844.7786
73.9200 6568.9070
73.9300 6786.1580
73.9400 7099.8006
73.9500 6796.2000
73.9600 6648.2638
73.9700 6965.4712
73.9800 7095.5160
73.9900 7101.0970
74.0000 6872.6262
74.0100 7086.7862
74.0200 6885.5460
74.0300 6856.3940
74.0400 7143.5636
74.0500 6916.4698
74.0600 6781.1584
74.0700 6522.5456
74.0800 6735.1566
74.0900 7190.9074
74.1000 6883.1364
74.1100 7021.9140
74.1200 6869.1716
74.1300 7232.5904
74.1400 6937.9070
74.1500 6732.3160
74.1600 7347.5448
74.1700 6962.5724
74.1800 6667.5606
74.1900 6908.5904
74.2000 7134.0380
74.2100 6551.7338
74.2200 6821.1796
74.2300 7095.5216
74.2400 6742.4654
74.2500 6623.7920
74.2600 6805.6918
74.2700 6994.2692
74.2800 7071.3208
74.2900 7158.3064
74.3000 6740.7942
74.3100 6967.2314
74.3200 6871.2654
74.3300 6891.5022
74.3400 6711.3998
74.3500 6670.9310
74.3600 6921.9556
74.3700 6749.3562
74.3800 6532.3262
74.3900 7008.4358
74.4000 6906.2688
74.4100 7175.2392
74.4200 6929.4418
74.4300 7266.1246
74.4400 6870.7138
74.4500 6677.5390
74.4600 6864.5646
74.4700 6936.7928
74.4800 6983.3000
74.4900 6771.6064
74.5000 6805.1600
74.5100 6545.4252
74.5200 7020.6600
74.5300 6771.2670
74.5400 6874.4938
74.5500 6625.1616
74.5600 6898.7906
74.5700 6558.8728
74.5800 7086.9556
74.5900 6690.3572
74.6000 6452.3442
74.6100 6706.4816
74.6200 6852.8946
74.6300 6865.9294
74.6400 6787.8850
74.6500 7124.1578
74.6600 7291.3054
74.6700 6836.9702
74.6800 6810.4806
74.6900 6941.5300
74.7000 6875.0146
74.7100 7023.3634
74.7200 6751.8806
74.7300 6853.4822
74.7400 7085.3622
74.7500 6850.0170
74.7600 6583.8248
74.7700 6667.6184
74.7800 6887.2616
74.7900 7037.9102
74.8000 6903.6002
74.8100 7012.8720
74.8200 6885.8236
74.8300 6718.6254
74.8400 6904.9634
74.8500 7069.0926
74.8600 6822.2176
74.8700 7100.3614
74.8800 7030.1042
74.8900 6745.8012
74.9000 6870.3760
74.9100 6769.7102
74.9200 6772.5070
74.9300 6776.6004
74.9400 6795.4496
74.9500 6822.4020
74.9600 6813.2250
74.9700 6924.8544
74.9800 6862.9794
74.9900 6996.6610
75.0000 7018.6280
75.0100 7001.7578
75.0200 6901.9548
75.0300 7282.3364
75.0400 6946.6056
75.0500 6889.5198
75.0600 7237.1216
75.0700 7096.0904
75.0800 7304.1528
75.0900 7124.2050
75.1000 7102.5082
75.1100 7057.8996
75.1200 7415.0292
75.1300 7015.0122
75.1400 7358.4848
75.1500 6986.7514
75.1600 7085.8626
75.1700 7349.4996
75.1800 7021.4340
75.1900 6860.2336
75.2000 7329.1692
75.2100 7175.1708
75.2200 7052.2974
75.2300 7232.6848
75.2400 6944.7810
75.2500 6850.8496
75.2600 6651.6272
75.2700 6927.9638
75.2800 6958.6174
75.2900 7003.9454
75.3000 7213.6264
75.3100 7236.9832
75.3200 7069.7314
75.3300 7105.2548
75.3400 7248.6352
75.3500 7251.3664
75.3600 7027.3796
75.3700 7111.1882
75.3800 7366.9490
75.3900 7335.8024
75.4000 6623.0586
75.4100 6923.4676
75.4200 6841.3184
75.4300 7217.4820
75.4400 7285.9928
75.4500 7152.5032
75.4600 6950.0196
75.4700 6828.5620
75.4800 7275.3834
75.4900 6999.1398
75.5000 7290.9114
75.5100 7162.4968
75.5200 7337.0826
75.5300 7264.2806
75.5400 7475.5436
75.5500 7143.4880
75.5600 7394.1366
75.5700 7231.9962
75.5800 7262.1744
75.5900 6969.1626
75.6000 7281.9588
75.6100 7091.8222
75.6200 7201.3876
75.6300 7236.0222
75.6400 7403.3122
75.6500 7134.9218
75.6600 7334.5028
75.6700 7537.7320
75.6800 7236.2020
75.6900 7368.4106
75.7000 7322.5602
75.7100 7327.4276
75.7200 7495.8496
75.7300 7297.9346
75.7400 7336.6414
75.7500 7477.3210
75.7600 7686.7912
75.7700 7395.2880
75.7800 7330.9766
75.7900 7383.2234
75.8000 7639.2350
75.8100 7788.7084
75.8200 7708.5832
75.8300 7532.1908
75.8400 7523.4228
75.8500 7477.0336
75.8600 7544.5516
75.8700 7715.0862
75.8800 7475.8090
75.8900 7524.0634
75.9000 7428.9314
75.9100 7703.1070
75.9200 7414.9218
75.9300 7458.9404
75.9400 7787.5806
75.9500 7371.4306
75.9600 7706.1816
75.9700 7745.3312
75.9800 7343.2024
75.9900 7462.4724
76.0000 7581.9954
76.0100 7690.9252
76.0200 7711.9052
76.0300 7639.0284
76.0400 7678.7680
76.0500 7749.9820
76.0600 8016.9116
76.0700 7839.7306
76.0800 8115.4012
76.0900 7807.4968
76.1000 7902.6098
76.1100 7673.5588
76.1200 8070.4174
76.1300 7970.6648
76.1400 8138.7378
76.1500 8283.9648
76.1600 8009.8396
76.1700 7947.5634
76.1800 7796.2060
76.1900 8120.6698
76.2000 8287.4772
76.2100 8187.4032
76.2200 8386.1890
76.2300 8254.2066
76.2400 8423.3130
76.2500 8632.6042
76.2600 8148.6230
76.2700 8448.9298
76.2800 8474.7184
76.2900 8659.7470
76.3000 8415.2686
76.3100 8751.6072
76.3200 8927.6888
76.3300 9050.4672
76.3400 9093.7850
76.3500 9137.9394
76.3600 9154.2188
76.3700 9035.3816
76.3800 9051.5300
76.3900 8518.7068
76.4000 9003.4106
76.4100 9076.0230
76.4200 9395.3214
76.4300 9349.1544
76.4400 9109.0088
76.4500 9132.6018
76.4600 9229.5808
76.4700 9693.7346
76.4800 9036.1564
76.4900 9135.6884
76.5000 9112.2224
76.5100 9296.9890
76.5200 9675.3076
76.5300 9389.8364
76.5400 9366.2044
76.5500 9666.9450
76.5600 9391.4982
76.5700 9633.2332
76.5800 9221.8172
76.5900 9143.6612
76.6000 9818.4978
76.6100 10213.1144
76.6200 10155.0138
76.6300 9720.2474
76.6400 9970.1172
76.6500 10106.3818
76.6600 9931.0668
76.6700 9937.5668
76.6800 9386.4096
76.6900 9595.3450
76.7000 9816.0872
76.7100 9564.6158
76.7200 9669.1414
76.7300 9843.7728
76.7400 9441.1736
76.7500 9399.7266
76.7600 9334.1382
76.7700 9128.1584
76.7800 9270.2034
76.7900 9497.7320
76.8000 9398.4546
76.8100 9027.2460
76.8200 9325.1912
76.8300 9002.7002
76.8400 8705.5258
76.8500 8675.3776
76.8600 8808.1404
76.8700 8819.9072
76.8800 8744.5158
76.8900 8610.9066
76.9000 8800.1464
76.9100 8605.2058
76.9200 8762.9500
76.9300 8455.0154
76.9400 8108.7068
76.9500 8303.4042
76.9600 8042.8938
76.9700 8181.6252
76.9800 7787.2102
76.9900 8214.6362
77.0000 8345.9106
77.0100 8027.5188
77.0200 7881.0596
77.0300 7793.3496
77.0400 7605.0472
77.0500 7754.6118
77.0600 8107.5602
77.0700 7565.6746
77.0800 7638.7076
77.0900 7610.7618
77.1000 7833.7476
77.1100 7485.5778
77.1200 7496.0140
77.1300 7598.6288
77.1400 7666.4226
77.1500 7565.9114
77.1600 7300.6738
77.1700 7224.1928
77.1800 7192.1728
77.1900 7369.7428
77.2000 7523.6744
77.2100 7306.5958
77.2200 7884.9584
77.2300 7419.7006
77.2400 7277.3518
77.2500 7371.4078
77.2600 7369.3270
77.2700 7385.2140
77.2800 7224.8528
77.2900 7526.0808
77.3000 7116.4388
77.3100 7261.4462
77.3200 7072.2730
77.3300 7298.1682
77.3400 7494.9910
77.3500 7199.2562
77.3600 7235.7080
77.3700 7492.1150
77.3800 7245.8902
77.3900 6974.6696
77.4000 7012.0044
77.4100 7059.9886
77.4200 7300.4532
77.4300 7268.0404
77.4400 7148.4986
77.4500 7248.8460
77.4600 7234.9146
77.4700 7055.5566
77.4800 6908.6946
77.4900 7149.0870
77.5000 7121.7196
77.5100 7116.1832
77.5200 7102.9566
77.5300 7376.6528
77.5400 7126.8026
77.5500 7144.5922
77.5600 6918.0412
77.5700 7068.0810
77.5800 6897.1884
77.5900 7060.0154
77.6000 7132.9646
77.6100 7119.4734
77.6200 7224.1308
77.6300 7239.6290
77.6400 6963.2820
77.6500 7024.6598
77.6600 7100.3622
77.6700 7160.0878
77.6800 7476.0180
77.6900 7339.9690
77.7000 7159.0202
77.7100 6818.5930
77.7200 7127.4480
77.7300 7059.3570
77.7400 6895.5338
77.7500 6929.8568
77.7600 6906.6780
77.7700 6943.3090
77.7800 6842.4226
77.7900 6696.0246
77.8000 7110.1262
77.8100 7009.6110
77.8200 6563.1348
77.8300 6823.5246
77.8400 6655.9152
77.8500 7067.2924
77.8600 6497.4430
77.8700 6847.7304
77.8800 6781.6292
77.8900 7056.0262
77.9000 6830.2636
77.9100 6841.4388
77.9200 6947.2836
77.9300 6894.5312
77.9400 6903.5506
77.9500 6956.4778
77.9600 7006.5300
77.9700 6690.2226
77.9800 7201.7366
77.9900 6806.8868
78.0000 6840.9270
78.0100 6752.4080
78.0200 7438.6604
78.0300 7022.8280
78.0400 7108.4912
78.0500 6733.6992
78.0600 6732.0358
78.0700 6607.9532
78.0800 7030.8504
78.0900 7034.1146
78.1000 6542.3658
78.1100 6703.9970
78.1200 6998.5416
78.1300 6371.0104
78.1400 6620.6604
78.1500 6657.8898
78.1600 6837.9484
78.1700 6668.7422
78.1800 7070.6918
78.1900 6708.7448
78.2000 7385.6770
78.2100 6941.4698
78.2200 7102.0174
78.2300 6826.4066
78.2400 6865.2442
78.2500 7036.4534
78.2600 6867.3698
78.2700 6929.7982
78.2800 6900.9464
78.2900 6979.2252
78.3000 6729.2542
78.3100 7141.8432
78.3200 6771.9478
78.3300 6896.9402
78.3400 7119.1414
78.3500 7017.9908
78.3600 6720.2490
78.3700 6977.2714
78.3800 6778.5892
78.3900 7018.6988
78.4000 7302.6832
78.4100 6502.0866
78.4200 6599.7258
78.4300 6904.9772
78.4400 6754.2342
78.4500 6689.5964
78.4600 6817.1444
78.4700 6899.2838
78.4800 6787.5504
78.4900 7271.2182
78.5000 7476.0628
78.5100 6965.9506
78.5200 6926.2134
78.5300 6629.5336
78.5400 6802.8410
78.5500 7176.4274
78.5600 7262.9916
78.5700 7136.1304
78.5800 7145.3036
78.5900 6864.9374
78.6000 6673.0840
78.6100 6590.5506
78.6200 6557.6136
78.6300 6507.1192
78.6400 6751.9316
78.6500 7146.7000
78.6600 6595.1242
78.6700 6815.0302
78.6800 7031.0084
78.6900 6737.8796
78.7000 6985.8912
78.7100 6927.3974
78.7200 7010.0090
78.7300 7030.5810
78.7400 6919.9594
78.7500 6918.9876
78.7600 6483.7728
78.7700 6666.7444
78.7800 7123.5026
78.7900 6693.9108
78.8000 6867.6212
78.8100 6887.0418
78.8200 6997.2184
78.8300 6967.0704
78.8400 7064.5068
78.8500 6810.9058
78.8600 6605.1294
78.8700 7084.7592
78.8800 6883.3562
78.8900 6907.6692
78.9000 6829.5834
78.9100 6596.4742
78.9200 6921.5878
78.9300 6588.2268
78.9400 6562.4902
78.9500 6563.8142
78.9600 6941.2818
78.9700 7076.9182
78.9800 6772.1440
78.9900 7107.1866
79.0000 6775.3048
79.0100 6662.8548
79.0200 6760.7508
79.0300 6782.8524
79.0400 6737.8484
79.0500 6647.3254
79.0600 7003.9168
79.0700 6664.2216
79.0800 6672.2342
79.0900 6594.6652
79.1000 6849.0258
79.1100 6555.0882
79.1200 6601.2642
79.1300 6788.1474
79.1400 6923.1176
79.1500 6850.7390
79.1600 6624.0524
79.1700 6605.8582
79.1800 7037.6318
79.1900 6857.6806
79.2000 6671.1976
79.2100 6773.1062
79.2200 7212.4584
79.2300 6860.3320
79.2400 6867.8410
79.2500 6950.9270
79.2600 7098.6564
79.2700 7109.7356
79.2800 6796.9780
79.2900 6867.3788
79.3000 7136.1784
79.3100 6970.6176
79.3200 6775.5798
79.3300 6883.0818
79.3400 6506.6910
79.3500 7020.7032
79.3600 7322.8760
79.3700 7296.3192
79.3800 7526.3932
79.3900 7081.0214
79.4000 7020.6592
79.4100 7121.3778
79.4200 6793.8160
79.4300 6781.0490
79.4400 7038.0826
79.4500 6765.7694
79.4600 6727.3848
79.4700 6876.5544
79.4800 7057.8214
79.4900 7263.7850
79.5000 7357.9216
79.5100 7157.9418
79.5200 6787.3282
79.5300 6725.0302
79.5400 7022.8442
79.5500 6808.0762
79.5600 6861.1516
79.5700 6865.1692
79.5800 6986.9352
79.5900 7208.7744
79.6000 7091.9344
79.6100 6929.3344
79.6200 7072.8028
79.6300 6988.7696
79.6400 6764.4642
79.6500 6926.6016
79.6600 7085.7788
79.6700 7149.9610
79.6800 7265.7820
79.6900 6918.1226
79.7000 6596.1972
79.7100 6630.6998
79.7200 6885.2198
79.7300 6847.4008
79.7400 6583.1088
79.7500 6890.9668
79.7600 7029.8772
79.7700 7107.6472
79.7800 7017.7482
79.7900 7457.6880
79.8000 6881.2134
79.8100 6626.9462
79.8200 7156.5478
79.8300 6940.0342
79.8400 7220.4768
79.8500 7244.1382
79.8600 6846.3500
79.8700 6781.2016
79.8800 7151.7122
79.8900 6939.5198
79.9000 6985.4768
79.9100 6830.1286
79.9200 7025.5730
79.9300 7395.8528
79.9400 7188.3886
79.9500 6949.8674
79.9600 7188.0346
79.9700 6985.1888
79.9800 6774.1240
79.9900 7223.9226
80.0000 6958.1380
80.0100 6915.8756
80.0200 7077.8142
80.0300 7032.8442
80.0400 6938.5604
80.0500 6933.2748
80.0600 6601.5140
80.0700 6867.1150
80.0800 6519.6342
80.0900 6828.1356
80.1000 6907.7922
80.1100 6946.8376
80.1200 7283.2512
80.1300 7152.7180
80.1400 6781.1048
80.1500 6942.7930
80.1600 7262.5260
80.1700 7217.0312
80.1800 6875.0668
80.1900 6712.9232
80.2000 6977.6408
80.2100 6880.9994
80.2200 7294.2302
80.2300 7076.8424
80.2400 6615.7024
80.2500 7041.8806
80.2600 7122.7620
80.2700 6940.9416
80.2800 6980.1936
80.2900 7108.9526
80.3000 6870.6552
80.3100 6906.0702
80.3200 6981.6552
80.3300 6726.2378
80.3400 6885.1522
80.3500 7099.3352
80.3600 7047.6864
80.3700 6679.3664
80.3800 6989.1838
80.3900 7161.1368
80.4000 7066.0352
80.4100 6684.9536
80.4200 6936.1638
80.4300 6970.4614
80.4400 7214.2408
80.4500 6834.1480
80.4600 7081.6374
80.4700 7143.1234
80.4800 7030.8740
80.4900 6935.7422
80.5000 7085.9164
80.5100 6874.5476
80.5200 7425.5876
80.5300 7028.5384
80.5400 7172.8996
80.5500 7228.0436
80.5600 7012.1362
80.5700 6939.1114
80.5800 7125.6014
80.5900 7356.4494
80.6000 6955.1302
80.6100 7047.4708
80.6200 6855.5380
80.6300 7027.1818
80.6400 6985.4566
80.6500 7503.5742
80.6600 7051.2916
80.6700 7096.5104
80.6800 7146.8334
80.6900 7022.1924
80.7000 7410.0830
80.7100 7278.7248
80.7200 7385.9660
80.7300 7356.8766
80.7400 7240.2490
80.7500 7284.5940
80.7600 7172.0492
80.7700 7791.8580
80.7800 7369.5190
80.7900 7651.5756
80.8000 7185.7968
80.8100 7057.1166
80.8200 7550.3328
80.8300 7180.8390
80.8400 7552.4202
80.8500 7512.1704
80.8600 7404.9854
80.8700 7437.9036
80.8800 7496.5512
80.8900 7272.2338
80.9000 7540.8374
80.9100 7414.5150
80.9200 7519.6998
80.9300 7490.7186
80.9400 7554.8340
80.9500 7470.0562
80.9600 7144.4214
80.9700 7319.9846
80.9800 7328.1038
80.9900 7577.6408
81.0000 7433.2024
81.0100 7041.2240
81.0200 7340.2678
81.0300 7155.1490
81.0400 7512.9110
81.0500 7582.1728
81.0600 7648.4546
81.0700 7244.8754
81.0800 7682.2306
81.0900 7609.4864
81.1000 7512.7726
81.1100 7538.2080
81.1200 7272.8182
81.1300 7378.7792
81.1400 7565.1978
81.1500 7666.3566
81.1600 7684.2716
81.1700 7815.7796
81.1800 7512.9924
81.1900 7332.2616
81.2000 7078.8388
81.2100 8078.8640
81.2200 7505.3702
81.2300 7769.2244
81.2400 7244.7224
81.2500 7364.8528
81.2600 7736.6446
81.2700 7576.8522
81.2800 7647.4096
81.2900 7592.6164
81.3000 7290.2572
81.3100 7653.3300
81.3200 7702.7800
81.3300 7825.7950
81.3400 7578.1706
81.3500 7807.5040
81.3600 7661.9360
81.3700 7328.9184
81.3800 7894.8934
81.3900 7346.3330
81.4000 7336.6870
81.4100 7394.0266
81.4200 7733.2714
81.4300 7971.0556
81.4400 7635.9408
81.4500 7568.2210
81.4600 7689.5866
81.4700 7701.3290
81.4800 7493.6076
81.4900 7377.3772
81.5000 7519.7038
81.5100 7529.0926
81.5200 7665.4696
81.5300 7862.5366
81.5400 7258.4350
81.5500 7733.1632
81.5600 7240.5102
81.5700 7319.3962
81.5800 7353.0852
81.5900 7266.1060
81.6000 7662.0476
81.6100 7425.8358
81.6200 7201.8270
81.6300 7113.4448
81.6400 7537.5732
81.6500 7322.9192
81.6600 7392.6978
81.6700 7035.3914
81.6800 7074.1024
81.6900 7028.7924
81.7000 7190.2612
81.7100 6888.9990
81.7200 7295.4192
81.7300 7067.1134
81.7400 7367.9078
81.7500 7401.1028
81.7600 7239.5182
81.7700 7423.1462
81.7800 7514.3930
81.7900 7114.3294
81.8000 6762.6844
81.8100 6979.6232
81.8200 6868.7028
81.8300 6917.5008
81.8400 7124.4466
81.8500 7514.2456
81.8600 7000.9904
81.8700 7079.3872
81.8800 7291.0124
81.8900 6957.2216
81.9000 7280.5738
81.9100 7014.4996
81.9200 6602.2258
81.9300 7046.6334
81.9400 6955.8000
81.9500 7170.7080
81.9600 6987.1736
81.9700 7102.3136
81.9800 7409.8438
81.9900 7436.6390
82.0000 7145.8170
82.0100 7069.6794
82.0200 7023.3780
82.0300 7153.8314
82.0400 7181.7758
82.0500 7426.2084
82.0600 7074.1830
82.0700 7102.9590
82.0800 6900.2750
82.0900 7216.1264
82.1000 7226.9198
82.1100 6806.4120
82.1200 6916.5560
82.1300 7368.2056
82.1400 7493.0762
82.1500 7234.3604
82.1600 7186.8204
82.1700 7291.7228
82.1800 7344.0284
82.1900 7364.9390
82.2000 7109.9422
82.2100 7039.6956
82.2200 7153.4856
82.2300 7273.9404
82.2400 7285.0618
82.2500 7035.5396
82.2600 6903.8224
82.2700 7095.4566
82.2800 7244.8462
82.2900 7293.8290
82.3000 7421.9864
82.3100 7167.1720
82.3200 7296.5308
82.3300 6959.1586
82.3400 7239.6980
82.3500 7167.8824
82.3600 7083.9478
82.3700 7296.8668
82.3800 6965.1472
82.3900 7116.0482
82.4000 7002.1874
82.4100 6765.4110
82.4200 6830.4826
82.4300 7091.8782
82.4400 6829.5198
82.4500 7201.0466
82.4600 6979.1634
82.4700 6959.8014
82.4800 6676.5254
82.4900 7039.9952
82.5000 6967.4422
82.5100 6909.0430
82.5200 6942.6546
82.5300 6911.4314
82.5400 7221.4624
82.5500 7135.6038
82.5600 7602.4422
82.5700 7187.2900
82.5800 7229.3408
82.5900 6902.6106
82.6000 6965.9814
82.6100 7137.3046
82.6200 6708.9804
82.6300 6629.1914
82.6400 6766.3846
82.6500 7090.9506
82.6600 7032.8312
82.6700 6707.0292
82.6800 7343.9006
82.6900 6957.9444
82.7000 7018.8346
82.7100 6802.5590
82.7200 6805.5368
82.7300 6935.5722
82.7400 6782.3604
82.7500 7068.2658
82.7600 7111.6732
82.7700 6818.6768
82.7800 7072.4626
82.7900 6859.8056
82.8000 6765.9510
82.8100 6716.4612
82.8200 6726.9816
82.8300 7286.6080
82.8400 7270.1864
82.8500 6784.9800
82.8600 6982.7050
82.8700 6949.3090
82.8800 7037.9614
82.8900 6903.5180
82.9000 6986.2216
82.9100 6965.6990
82.9200 7139.5508
82.9300 6859.6614
82.9400 6812.8918
82.9500 7061.7408
82.9600 6692.7990
82.9700 7070.0896
82.9800 7198.2390
82.9900 7220.9904
83.0000 7239.0170
83.0100 6654.6318
83.0200 6996.2818
83.0300 6937.6848
83.0400 6991.7806
83.0500 6613.8602
83.0600 7018.8420
83.0700 7386.8482
83.0800 6821.7936
83.0900 6989.9968
83.1000 7165.0782
83.1100 6969.6770
83.1200 6995.4078
83.1300 7061.4990
83.1400 6863.6360
83.1500 6810.2466
83.1600 6787.7804
83.1700 6857.9866
83.1800 6673.9136
83.1900 7253.9006
83.2000 6748.7814
83.2100 6890.4940
83.2200 7109.9934
83.2300 7013.0608
83.2400 6987.5382
83.2500 6808.0298
83.2600 6931.1052
83.2700 6557.3906
83.2800 6891.6260
83.2900 6794.7558
83.3000 6799.1618
83.3100 6666.0034
83.3200 6787.7624
83.3300 6921.5128
83.3400 6638.5750
83.3500 6856.4250
83.3600 7015.3858
83.3700 6700.2234
83.3800 6992.2412
83.3900 6964.7128
83.4000 7044.0666
83.4100 6859.7574
83.4200 6813.9816
83.4300 7005.1164
83.4400 6908.0680
83.4500 6744.7230
83.4600 6937.4878
83.4700 6699.7384
83.4800 6852.0858
83.4900 6508.0648
83.5000 7110.1010
83.5100 6851.5910
83.5200 6829.9788
83.5300 7104.9112
83.5400 6839.0926
83.5500 7444.4042
83.5600 6690.3024
83.5700 6850.1904
83.5800 7023.3292
83.5900 6889.8226
83.6000 6898.4978
83.6100 6920.3418
83.6200 6883.5824
83.6300 7033.2934
83.6400 6774.4304
83.6500 6802.2692
83.6600 7064.5320
83.6700 6631.1548
83.6800 6969.3466
83.6900 6983.5302
83.7000 6921.8668
83.7100 7319.2554
83.7200 6883.0998
83.7300 6971.1174
83.7400 7168.0932
83.7500 6962.2860
83.7600 7106.9524
83.7700 7092.9850
83.7800 7268.8786
83.7900 6477.2806
83.8000 7074.4776
83.8100 6642.0708
83.8200 6645.4220
83.8300 6961.9360
83.8400 6754.8646
83.8500 6796.0474
83.8600 6715.6368
83.8700 6834.4442
83.8800 6845.0586
83.8900 6967.1158
83.9000 6938.3976
83.9100 6866.4958
83.9200 6894.1650
83.9300 7065.1360
83.9400 7156.2882
83.9500 7074.3222
83.9600 6758.9384
83.9700 7064.2888
83.9800 6949.9064
83.9900 7187.8092
84.0000 7237.4194
84.0100 6827.1988
84.0200 6894.3694
84.0300 6908.2926
84.0400 6788.0770
84.0500 6945.5476
84.0600 6933.1014
84.0700 6781.7208
84.0800 7073.8012
84.0900 6957.1444
84.1000 7037.6294
84.1100 7080.1692
84.1200 6884.7420
84.1300 6641.9348
84.1400 6898.0794
84.1500 6840.0252
84.1600 6687.3292
84.1700 7226.8824
84.1800 7068.0240
84.1900 7058.9592
84.2000 7193.6508
84.2100 6820.7496
84.2200 7063.6694
84.2300 7659.7486
84.2400 7245.0594
84.2500 6850.4094
84.2600 7047.3738
84.2700 6994.6134
84.2800 7307.7180
84.2900 7328.7110
84.3000 6857.4934
84.3100 7058.1518
84.3200 6929.5476
84.3300 6839.4166
84.3400 6901.0686
84.3500 7029.7942
84.3600 7181.1784
84.3700 7386.3160
84.3800 6871.9662
84.3900 6954.9016
84.4000 7255.3166
84.4100 7062.7800
84.4200 7220.1302
84.4300 6960.7658
84.4400 6815.1156
84.4500 6771.0078
84.4600 6524.5020
84.4700 7106.5764
84.4800 6961.3964
84.4900 7158.1844
84.5000 6917.1166
84.5100 6889.0088
84.5200 7153.7166
84.5300 7014.8494
84.5400 7051.2370
84.5500 6548.4314
84.5600 6930.3736
84.5700 7040.5770
84.5800 7317.8662
84.5900 6979.5914
84.6000 7005.3362
84.6100 6658.6280
84.6200 6827.7816
84.6300 7391.0872
84.6400 7061.6870
84.6500 6778.7810
84.6600 7222.1794
84.6700 7110.7454
84.6800 7193.1274
84.6900 6890.2906
84.7000 7110.2986
84.7100 6636.2240
84.7200 7059.1252
84.7300 7074.5606
84.7400 7069.5598
84.7500 6771.2068
84.7600 6861.9068
84.7700 7008.3390
84.7800 7075.3914
84.7900 7057.6978
84.8000 6784.7916
84.8100 6873.7182
84.8200 7187.2266
84.8300 6707.4000
84.8400 6684.2386
84.8500 7339.5646
84.8600 7450.5258
84.8700 7113.5620
84.8800 7033.1478
84.8900 6837.6034
84.9000 6987.9142
84.9100 6939.5256
84.9200 6861.5772
84.9300 7263.7606
84.9400 7191.4412
84.9500 6763.6584
84.9600 6914.8918
84.9700 7301.1190
84.9800 6737.1184
84.9900 6645.6966
85.0000 7102.5896
85.0100 6734.1492
85.0200 7282.2250
85.0300 7252.9558
85.0400 7182.2608
85.0500 7092.2624
85.0600 7075.8496
85.0700 7040.5598
85.0800 7485.0684
85.0900 7146.5600
85.1000 6850.3174
85.1100 7334.4466
85.1200 7438.8078
85.1300 6989.8552
85.1400 7127.1012
85.1500 6984.2554
85.1600 7039.0136
85.1700 6871.0058
85.1800 6673.0578
85.1900 7078.2836
85.2000 7216.5966
85.2100 7093.6466
85.2200 6953.4986
85.2300 7540.7764
85.2400 7265.9244
85.2500 7140.0326
85.2600 6819.4808
85.2700 7642.8898
85.2800 7284.8356
85.2900 7145.6070
85.3000 7171.2460
85.3100 7431.4038
85.3200 7494.0520
85.3300 7383.4008
85.3400 7387.4634
85.3500 7385.4558
85.3600 7530.8814
85.3700 7546.6032
85.3800 7497.2534
85.3900 7688.1054
85.4000 7996.7154
85.4100 7445.3362
85.4200 7461.7716
85.4300 7595.9294
85.4400 7524.4076
85.4500 7424.8746
85.4600 8177.7222
85.4700 7987.2168
85.4800 7855.6176
85.4900 8018.7744
85.5000 7851.0466
85.5100 7558.9062
85.5200 8156.1124
85.5300 8086.8986
85.5400 8116.3330
85.5500 7858.9568
85.5600 8351.6960
85.5700 7868.5978
85.5800 8169.3888
85.5900 7573.7940
85.6000 8279.9642
85.6100 8283.5612
85.6200 7847.9322
85.6300 8098.5896
85.6400 8168.4774
85.6500 8015.5680
85.6600 8268.6288
85.6700 8198.8378
85.6800 8372.8474
85.6900 8385.4882
85.7000 8589.1748
85.7100 8372.1248
85.7200 8278.1144
85.7300 8294.0780
85.7400 8010.9318
85.7500 7833.4498
85.7600 7762.1704
85.7700 7505.3548
85.7800 8300.2068
85.7900 8176.3134
85.8000 8039.6436
85.8100 8167.8458
85.8200 7757.4252
85.8300 8174.4450
85.8400 8160.2540
85.8500 7856.0034
85.8600 7499.3930
85.8700 7406.8270
85.8800 7884.5256
85.8900 8151.8604
85.9000 7652.9672
85.9100 7633.2650
85.9200 7689.3334
85.9300 7446.8840
85.9400 7692.9264
85.9500 7498.5938
85.9600 7800.6348
85.9700 7708.9892
85.9800 7558.9364
85.9900 7300.3222
86.0000 7427.5528
86.0100 7303.3626
86.0200 7280.0472
86.0300 7697.5748
86.0400 7639.7208
86.0500 7480.4060
86.0600 7464.1578
86.0700 7221.0310
86.0800 7540.9888
86.0900 7421.7106
86.1000 7328.6938
86.1100 7545.1636
86.1200 7197.0800
86.1300 7117.8394
86.1400 6831.0588
86.1500 7329.6712
86.1600 7252.5252
86.1700 7215.1360
86.1800 7211.2386
86.1900 7136.4062
86.2000 7154.3774
86.2100 7341.4208
86.2200 7476.5030
86.2300 7161.0018
86.2400 7013.6076
86.2500 6863.0616
86.2600 7054.1570
86.2700 7240.9612
86.2800 7077.9646
86.2900 6794.6236
86.3000 6984.7192
86.3100 7252.5602
86.3200 7274.0414
86.3300 7232.9760
86.3400 7028.6018
86.3500 7064.1952
86.3600 7039.3710
86.3700 7045.4102
86.3800 6881.8930
86.3900 7071.4812
86.4000 7116.3306
86.4100 6981.6456
86.4200 7066.1288
86.4300 7000.1148
86.4400 7166.5520
86.4500 6998.7752
86.4600 7314.9178
86.4700 7061.1018
86.4800 6993.7882
86.4900 6820.8056
86.5000 7177.1964
86.5100 6877.8230
86.5200 7030.4118
86.5300 6975.8170
86.5400 6972.0890
86.5500 6961.5650
86.5600 6800.4284
86.5700 6711.4344
86.5800 6884.2504
86.5900 6914.8918
86.6000 6981.8286
86.6100 6797.3360
86.6200 7107.1850
86.6300 6766.1174
86.6400 6816.3514
86.6500 6577.0682
86.6600 6905.7234
86.6700 7241.3754
86.6800 7349.2138
86.6900 6669.4088
86.7000 7159.7624
86.7100 7283.8868
86.7200 7218.2024
86.7300 6788.7198
86.7400 6865.8984
86.7500 6761.7998
86.7600 6868.5164
86.7700 6636.1230
86.7800 6816.7884
86.7900 7117.9378
86.8000 7165.4916
86.8100 7017.6236
86.8200 6834.4166
86.8300 7242.3828
86.8400 7047.3308
86.8500 7011.9710
86.8600 6873.8672
86.8700 6886.5056
86.8800 6671.6316
86.8900 6961.8474
86.9000 6736.5250
86.9100 6891.6202
86.9200 7078.8248
86.9300 7045.5208
86.9400 6772.7942
86.9500 6882.9672
86.9600 6792.0918
86.9700 6671.5332
86.9800 6728.8358
86.9900 7090.0440
87.0000 6928.6140
87.0100 7078.8436
87.0200 6987.3990
87.0300 6880.9384
87.0400 6731.0832
87.0500 6937.8418
87.0600 6658.9420
87.0700 6701.5372
87.0800 6914.2456
87.0900 6667.7270
87.1000 6939.7534
87.1100 6771.4164
87.1200 6821.7058
87.1300 6600.7096
87.1400 6401.2342
87.1500 6818.0962
87.1600 7150.0082
87.1700 6945.1360
87.1800 6909.5182
87.1900 6705.0078
87.2000 6946.3428
87.2100 6555.2682
87.2200 7059.4906
87.2300 6911.2736
87.2400 6926.6430
87.2500 6871.8368
87.2600 7087.6124
87.2700 7064.0624
87.2800 6757.2192
87.2900 7077.2364
87.3000 6904.4768
87.3100 6723.7382
87.3200 6965.2050
87.3300 6955.4362
87.3400 7066.5624
87.3500 6705.0740
87.3600 6536.5642
87.3700 6694.1024
87.3800 6960.4972
87.3900 6796.4794
87.4000 6936.0588
87.4100 6963.9152
87.4200 6887.4308
87.4300 7163.6214
87.4400 6835.9278
87.4500 6746.9368
87.4600 6730.5624
87.4700 6910.7870
87.4800 6848.7834
87.4900 6834.1952
87.5000 6801.0510
87.5100 6778.1462
87.5200 6894.3392
87.5300 6935.9978
87.5400 7140.4102
87.5500 7159.0852
87.5600 6999.0650
87.5700 7088.1738
87.5800 6738.4978
87.5900 6886.1230
87.6000 6956.3216
87.6100 6812.0480
87.6200 6951.5942
87.6300 7116.4478
87.6400 6610.0098
87.6500 7085.0798
87.6600 6899.4750
87.6700 6585.3988
87.6800 6934.5630
87.6900 6830.7438
87.7000 6763.4530
87.7100 6999.2610
87.7200 7189.9894
87.7300 6768.9816
87.7400 7013.0966
87.7500 7257.0410
87.7600 6987.6570
87.7700 6758.8314
87.7800 7051.6944
87.7900 6984.4954
87.8000 7191.0734
87.8100 7271.9442
87.8200 7081.7090
87.8300 6940.9806
87.8400 6722.8752
87.8500 6940.7732
87.8600 6745.5472
87.8700 7139.1480
87.8800 6824.1688
87.8900 6968.5556
87.9000 6908.9054
87.9100 6958.5278
87.9200 7102.5936
87.9300 6797.2896
87.9400 7016.2426
87.9500 7154.5760
87.9600 6854.4068
87.9700 7050.6502
87.9800 6772.9924
87.9900 6573.6520
88.0000 6705.3142
88.0100 6719.7592
88.0200 6994.4996
88.0300 7008.0974
88.0400 6723.1552
88.0500 6980.4542
88.0600 6950.7870
88.0700 6792.9122
88.0800 7225.3972
88.0900 6786.4006
88.1000 7036.0230
88.1100 7225.2856
88.1200 7249.0486
88.1300 7199.0894
88.1400 6937.0516
88.1500 6781.9970
88.1600 6797.6486
88.1700 6858.4464
88.1800 6780.0534
88.1900 6795.1704
88.2000 6876.4054
88.2100 7237.0582
88.2200 6950.8350
88.2300 6958.4286
88.2400 7015.8194
88.2500 6875.2400
88.2600 7041.6292
88.2700 6915.0180
88.2800 6794.8536
88.2900 6961.8392
88.3000 7227.7514
88.3100 7293.0102
88.3200 6951.5918
88.3300 6785.8586
88.3400 7085.8162
88.3500 7014.4596
88.3600 7089.0642
88.3700 7082.0060
88.3800 6960.6624
88.3900 6876.6350
88.4000 6732.3856
88.4100 7107.1240
88.4200 7012.7400
88.4300 6729.3164
88.4400 6731.2570
88.4500 6547.7132
88.4600 6825.1428
88.4700 7014.9016
88.4800 6984.2326
88.4900 6817.7368
88.5000 6829.1570
88.5100 6853.6500
88.5200 6873.6532
88.5300 7026.8790
88.5400 7097.7180
88.5500 6800.2470
88.5600 6602.4312
88.5700 7029.3938
88.5800 6895.4900
88.5900 6683.2690
88.6000 6626.4120
88.6100 6980.5958
88.6200 7101.0066
88.6300 7024.9626
88.6400 6766.9100
88.6500 6891.4038
88.6600 6847.7620
88.6700 6584.5808
88.6800 7087.3974
88.6900 6930.3386
88.7000 6719.7550
88.7100 6866.0832
88.7200 6938.1600
88.7300 7283.7012
88.7400 6870.2458
88.7500 7125.3450
88.7600 6812.7096
88.7700 6854.1578
88.7800 7231.2076
88.7900 7006.3778
88.8000 6906.1280
88.8100 7041.5730
88.8200 7030.8862
88.8300 7172.5040
88.8400 7120.8244
88.8500 6638.1364
88.8600 6968.7996
88.8700 6382.2274
88.8800 6877.5626
88.8900 6988.9420
88.9000 6565.5750
88.9100 7076.2776
88.9200 7490.3362
88.9300 7088.7776
88.9400 7006.6610
88.9500 7425.1400
88.9600 7073.7182
88.9700 6672.5992
88.9800 6821.4584
88.9900 6777.1176
89.0000 6847.0118
89.0100 6958.2846
89.0200 7162.3706
89.0300 7099.6656
89.0400 6774.8604
89.0500 6897.8182
89.0600 7443.6580
89.0700 6929.6884
89.0800 6561.9588
89.0900 6973.7044
89.1000 6999.2008
89.1100 6958.5360
89.1200 6920.6608
89.1300 6507.4296
89.1400 6865.7186
89.1500 6910.7154
89.1600 6933.9550
89.1700 7081.3948
89.1800 6760.4032
89.1900 6922.4316
89.2000 7060.9554
89.2100 7100.7226
89.2200 7097.8450
89.2300 6914.4296
89.2400 7181.2296
89.2500 6616.9218
89.2600 6806.7416
89.2700 7095.5232
89.2800 6919.4392
89.2900 7112.4138
89.3000 6868.2748
89.3100 7314.2798
89.3200 7099.3392
89.3300 6901.4160
89.3400 6965.8944
89.3500 7099.3002
89.3600 6986.3664
89.3700 7018.5572
89.3800 6694.1956
89.3900 6560.4102
89.4000 7096.5658
89.4100 7039.4792
89.4200 7417.7556
89.4300 7154.0658
89.4400 6946.0678
89.4500 7157.8312
89.4600 7076.6806
89.4700 7162.7644
89.4800 7091.1686
89.4900 6897.1508
89.5000 7005.3922
89.5100 6716.4730
89.5200 6676.4868
89.5300 6893.4188
89.5400 7011.5788
89.5500 7064.9422
89.5600 7021.6992
89.5700 7289.5084
89.5800 7059.1072
89.5900 6698.1990
89.6000 6991.7806
89.6100 7338.4522
89.6200 6999.3530
89.6300 7071.0050
89.6400 6735.8484
89.6500 6837.1248
89.6600 6970.1766
89.6700 6926.0214
89.6800 7700.9384
89.6900 7045.3426
89.7000 6637.9212
89.7100 6827.5406
89.7200 6801.8192
89.7300 6913.2698
89.7400 7270.7504
89.7500 7087.6246
89.7600 6751.3884
89.7700 6637.7502
89.7800 7145.9716
89.7900 7022.8678
89.8000 6935.9920
89.8100 7002.5204
89.8200 7052.9296
89.8300 7051.4892
89.8400 6937.4610
89.8500 7105.3150
89.8600 7175.2384
89.8700 6632.0870
89.8800 6992.6668
89.8900 7414.7242
89.9000 7227.8264
89.9100 6971.7806
89.9200 7470.3654
89.9300 7302.7034
89.9400 6731.2260
89.9500 7073.3284
89.9600 7208.3016
89.9700 7132.0808
89.9800 6960.1928
89.9900 7105.0920
90.0000 7059.1626
