         ID: 

    Comment: 

Scan Type: Normal
Start Angle: 15 deg.
Stop Angle: 90 deg.
Num Points: 3751
Step Size: 0.02 deg.
Datafile Res: 1600 
Scan Rate: 1.000000
Scan Mode: Continuous
Wavelength: 1.540562

Diffractometer Optics:
		Detector:
			 Type: Fixed Slits
			 X2 Configuration: No
		Tube: 
			 Type: Fixed Slits
			 X2 Configuration: No


Axis[0]
	 Selected   : no 
	 Iterative  : no 
	 Start Angle: 0.000000 
	 Stop Angle : 0.000000 
	 Step Size  : 0.000000 
	 Oscillating: no 

Axis[1]
	 Selected   : no 
	 Iterative  : no 
	 Start Angle: 0.000000 
	 Stop Angle : 0.000000 
	 Step Size  : 0.000000 
	 Oscillating: no 

Axis[2]
	 Selected   : no 
	 Iterative  : no 
	 Start Angle: 0.000000 
	 Stop Angle : 0.000000 
	 Step Size  : 0.000000 
	 Oscillating: no 

Axis[3]
	 Selected   : no 
	 Iterative  : no 
	 Start Angle: 0.000000 
	 Stop Angle : 0.000000 
	 Step Size  : 0.000000 
	 Oscillating: no 

Axis[4]
	 Selected   : no 
	 Iterative  : no 
	 Start Angle: 0.000000 
	 Stop Angle : 0.000000 
	 Step Size  : 0.000000 
	 Oscillating: no 

Axis[5]
	 Selected   : no 
	 Iterative  : no 
	 Start Angle: 0.000000 
	 Stop Angle : 0.000000 
	 Step Size  : 0.000000 
	 Oscillating: no 

Axis[6]
	 Selected   : no 
	 Iterative  : no 
	 Start Angle: 0.000000 
	 Stop Angle : 0.000000 
	 Step Size  : 0.000000 
	 Oscillating: no 

Axis[7]
	 Selected   : no 
	 Iterative  : no 
	 Start Angle: 0.000000 
	 Stop Angle : 0.000000 
	 Step Size  : 0.000000 
	 Oscillating: no 

Axis[8]
	 Selected   : no 
	 Iterative  : no 
	 Start Angle: 0.000000 
	 Stop Angle : 0.000000 
	 Step Size  : 0.000000 
	 Oscillating: no 

Axis[9]
	 Selected   : no 
	 Iterative  : no 
	 Start Angle: 0.000000 
	 Stop Angle : 0.000000 
	 Step Size  : 0.000000 
	 Oscillating: no 




	   Deg.    Counts 	   Time 	    ESD   

Range 0
  15.000	       117	    1200	    10.817
  15.020	       106	    1200	    10.296
  15.040	       100	    1200	    10.000
  15.060	       102	    1200	    10.100
  15.080	       114	    1200	    10.677
  15.100	       119	    1200	    10.909
  15.120	       107	    1200	    10.344
  15.140	       115	    1200	    10.724
  15.160	       114	    1200	    10.677
  15.180	       124	    1200	    11.136
  15.200	       117	    1200	    10.817
  15.220	       114	    1200	    10.677
  15.240	       118	    1200	    10.863
  15.260	       108	    1200	    10.392
  15.280	        98	    1200	     9.899
  15.300	       112	    1200	    10.583
  15.320	       113	    1200	    10.630
  15.340	        97	    1200	     9.849
  15.360	       107	    1200	    10.344
  15.380	        99	    1200	     9.950
  15.400	       110	    1200	    10.488
  15.420	       120	    1200	    10.954
  15.440	       124	    1200	    11.136
  15.460	       123	    1200	    11.091
  15.480	        93	    1200	     9.644
  15.500	       120	    1200	    10.954
  15.520	        91	    1200	     9.539
  15.540	        96	    1200	     9.798
  15.560	       102	    1200	    10.100
  15.580	       104	    1200	    10.198
  15.600	       119	    1200	    10.909
  15.620	       108	    1200	    10.392
  15.640	       108	    1200	    10.392
  15.660	       119	    1200	    10.909
  15.680	       107	    1200	    10.344
  15.700	       104	    1200	    10.198
  15.720	       110	    1200	    10.488
  15.740	       103	    1200	    10.149
  15.760	       104	    1200	    10.198
  15.780	       109	    1200	    10.440
  15.800	       117	    1200	    10.817
  15.820	       128	    1200	    11.314
  15.840	       106	    1200	    10.296
  15.860	       129	    1200	    11.358
  15.880	       115	    1200	    10.724
  15.900	       109	    1200	    10.440
  15.920	        88	    1200	     9.381
  15.940	       101	    1200	    10.050
  15.960	       110	    1200	    10.488
  15.980	        88	    1200	     9.381
  16.000	       106	    1200	    10.296
  16.020	       105	    1200	    10.247
  16.040	       116	    1200	    10.770
  16.060	        94	    1200	     9.695
  16.080	       104	    1200	    10.198
  16.100	       105	    1200	    10.247
  16.120	        98	    1200	     9.899
  16.140	       121	    1200	    11.000
  16.160	        91	    1200	     9.539
  16.180	       106	    1200	    10.296
  16.200	       114	    1200	    10.677
  16.220	        97	    1200	     9.849
  16.240	       115	    1200	    10.724
  16.260	        94	    1200	     9.695
  16.280	        81	    1200	     9.000
  16.300	       115	    1200	    10.724
  16.320	       114	    1200	    10.677
  16.340	       107	    1200	    10.344
  16.360	       119	    1200	    10.909
  16.380	       121	    1200	    11.000
  16.400	       109	    1200	    10.440
  16.420	       104	    1200	    10.198
  16.440	       101	    1200	    10.050
  16.460	        96	    1200	     9.798
  16.480	       109	    1200	    10.440
  16.500	       111	    1200	    10.536
  16.520	       118	    1200	    10.863
  16.540	       107	    1200	    10.344
  16.560	        84	    1200	     9.165
  16.580	       112	    1200	    10.583
  16.600	       117	    1200	    10.817
  16.620	       106	    1200	    10.296
  16.640	       125	    1200	    11.180
  16.660	        97	    1200	     9.849
  16.680	        93	    1200	     9.644
  16.700	        96	    1200	     9.798
  16.720	        98	    1200	     9.899
  16.740	       109	    1200	    10.440
  16.760	        95	    1200	     9.747
  16.780	        98	    1200	     9.899
  16.800	        95	    1200	     9.747
  16.820	       106	    1200	    10.296
  16.840	       103	    1200	    10.149
  16.860	       107	    1200	    10.344
  16.880	       107	    1200	    10.344
  16.900	        95	    1200	     9.747
  16.920	        99	    1200	     9.950
  16.940	       110	    1200	    10.488
  16.960	        98	    1200	     9.899
  16.980	       113	    1200	    10.630
  17.000	       111	    1200	    10.536
  17.020	        98	    1200	     9.899
  17.040	        99	    1200	     9.950
  17.060	       112	    1200	    10.583
  17.080	       113	    1200	    10.630
  17.100	       106	    1200	    10.296
  17.120	       113	    1200	    10.630
  17.140	       107	    1200	    10.344
  17.160	       120	    1200	    10.954
  17.180	       111	    1200	    10.536
  17.200	       109	    1200	    10.440
  17.220	       101	    1200	    10.050
  17.240	       114	    1200	    10.677
  17.260	        90	    1200	     9.487
  17.280	       116	    1200	    10.770
  17.300	        92	    1200	     9.592
  17.320	        88	    1200	     9.381
  17.340	       101	    1200	    10.050
  17.360	       141	    1200	    11.874
  17.380	       110	    1200	    10.488
  17.400	        92	    1200	     9.592
  17.420	        94	    1200	     9.695
  17.440	        89	    1200	     9.434
  17.460	       100	    1200	    10.000
  17.480	        88	    1200	     9.381
  17.500	       115	    1200	    10.724
  17.520	       113	    1200	    10.630
  17.540	       105	    1200	    10.247
  17.560	       113	    1200	    10.630
  17.580	        99	    1200	     9.950
  17.600	        90	    1200	     9.487
  17.620	        85	    1200	     9.220
  17.640	        93	    1200	     9.644
  17.660	       116	    1200	    10.770
  17.680	       102	    1200	    10.100
  17.700	       102	    1200	    10.100
  17.720	        96	    1200	     9.798
  17.740	       118	    1200	    10.863
  17.760	        89	    1200	     9.434
  17.780	       105	    1200	    10.247
  17.800	       116	    1200	    10.770
  17.820	        94	    1200	     9.695
  17.840	       113	    1200	    10.630
  17.860	       114	    1200	    10.677
  17.880	       101	    1200	    10.050
  17.900	       103	    1200	    10.149
  17.920	        91	    1200	     9.539
  17.940	        86	    1200	     9.274
  17.960	       115	    1200	    10.724
  17.980	        93	    1200	     9.644
  18.000	        92	    1200	     9.592
  18.020	       114	    1200	    10.677
  18.040	       109	    1200	    10.440
  18.060	        96	    1200	     9.798
  18.080	       106	    1200	    10.296
  18.100	        96	    1200	     9.798
  18.120	        94	    1200	     9.695
  18.140	        92	    1200	     9.592
  18.160	       114	    1200	    10.677
  18.180	        84	    1200	     9.165
  18.200	       111	    1200	    10.536
  18.220	       102	    1200	    10.100
  18.240	        97	    1200	     9.849
  18.260	        81	    1200	     9.000
  18.280	       115	    1200	    10.724
  18.300	        95	    1200	     9.747
  18.320	       110	    1200	    10.488
  18.340	        97	    1200	     9.849
  18.360	        84	    1200	     9.165
  18.380	       118	    1200	    10.863
  18.400	       104	    1200	    10.198
  18.420	       109	    1200	    10.440
  18.440	        99	    1200	     9.950
  18.460	       108	    1200	    10.392
  18.480	        85	    1200	     9.220
  18.500	        90	    1200	     9.487
  18.520	        88	    1200	     9.381
  18.540	        93	    1200	     9.644
  18.560	        86	    1200	     9.274
  18.580	       119	    1200	    10.909
  18.600	       128	    1200	    11.314
  18.620	       104	    1200	    10.198
  18.640	       103	    1200	    10.149
  18.660	       104	    1200	    10.198
  18.680	       100	    1200	    10.000
  18.700	        92	    1200	     9.592
  18.720	       106	    1200	    10.296
  18.740	       118	    1200	    10.863
  18.760	       121	    1200	    11.000
  18.780	        88	    1200	     9.381
  18.800	        91	    1200	     9.539
  18.820	        85	    1200	     9.220
  18.840	        97	    1200	     9.849
  18.860	       109	    1200	    10.440
  18.880	        88	    1200	     9.381
  18.900	        96	    1200	     9.798
  18.920	       110	    1200	    10.488
  18.940	        98	    1200	     9.899
  18.960	        79	    1200	     8.888
  18.980	        87	    1200	     9.327
  19.000	        90	    1200	     9.487
  19.020	       113	    1200	    10.630
  19.040	        92	    1200	     9.592
  19.060	       103	    1200	    10.149
  19.080	       114	    1200	    10.677
  19.100	        93	    1200	     9.644
  19.120	       107	    1200	    10.344
  19.140	       107	    1200	    10.344
  19.160	        77	    1200	     8.775
  19.180	       112	    1200	    10.583
  19.200	       110	    1200	    10.488
  19.220	       101	    1200	    10.050
  19.240	       107	    1200	    10.344
  19.260	       110	    1200	    10.488
  19.280	       100	    1200	    10.000
  19.300	        85	    1200	     9.220
  19.320	       116	    1200	    10.770
  19.340	        93	    1200	     9.644
  19.360	       110	    1200	    10.488
  19.380	       100	    1200	    10.000
  19.400	       112	    1200	    10.583
  19.420	       100	    1200	    10.000
  19.440	        90	    1200	     9.487
  19.460	        84	    1200	     9.165
  19.480	       107	    1200	    10.344
  19.500	       108	    1200	    10.392
  19.520	        97	    1200	     9.849
  19.540	        93	    1200	     9.644
  19.560	        87	    1200	     9.327
  19.580	        96	    1200	     9.798
  19.600	        95	    1200	     9.747
  19.620	       106	    1200	    10.296
  19.640	       100	    1200	    10.000
  19.660	       108	    1200	    10.392
  19.680	       106	    1200	    10.296
  19.700	       101	    1200	    10.050
  19.720	       107	    1200	    10.344
  19.740	       107	    1200	    10.344
  19.760	       111	    1200	    10.536
  19.780	       110	    1200	    10.488
  19.800	        91	    1200	     9.539
  19.820	       104	    1200	    10.198
  19.840	        78	    1200	     8.832
  19.860	       105	    1200	    10.247
  19.880	        99	    1200	     9.950
  19.900	        99	    1200	     9.950
  19.920	       100	    1200	    10.000
  19.940	        91	    1200	     9.539
  19.960	       104	    1200	    10.198
  19.980	        96	    1200	     9.798
  20.000	        95	    1200	     9.747
  20.020	       101	    1200	    10.050
  20.040	        82	    1200	     9.055
  20.060	       111	    1200	    10.536
  20.080	        99	    1200	     9.950
  20.100	       106	    1200	    10.296
  20.120	        73	    1200	     8.544
  20.140	        93	    1200	     9.644
  20.160	       101	    1200	    10.050
  20.180	        88	    1200	     9.381
  20.200	        94	    1200	     9.695
  20.220	        95	    1200	     9.747
  20.240	        94	    1200	     9.695
  20.260	        89	    1200	     9.434
  20.280	       104	    1200	    10.198
  20.300	        91	    1200	     9.539
  20.320	        94	    1200	     9.695
  20.340	       101	    1200	    10.050
  20.360	        92	    1200	     9.592
  20.380	       104	    1200	    10.198
  20.400	       104	    1200	    10.198
  20.420	        92	    1200	     9.592
  20.440	       105	    1200	    10.247
  20.460	       107	    1200	    10.344
  20.480	        84	    1200	     9.165
  20.500	       103	    1200	    10.149
  20.520	        86	    1200	     9.274
  20.540	        99	    1200	     9.950
  20.560	        93	    1200	     9.644
  20.580	        77	    1200	     8.775
  20.600	        98	    1200	     9.899
  20.620	        93	    1200	     9.644
  20.640	        89	    1200	     9.434
  20.660	        85	    1200	     9.220
  20.680	        85	    1200	     9.220
  20.700	        86	    1200	     9.274
  20.720	       103	    1200	    10.149
  20.740	        80	    1200	     8.944
  20.760	        88	    1200	     9.381
  20.780	        87	    1200	     9.327
  20.800	       111	    1200	    10.536
  20.820	       103	    1200	    10.149
  20.840	        97	    1200	     9.849
  20.860	       104	    1200	    10.198
  20.880	        90	    1200	     9.487
  20.900	       105	    1200	    10.247
  20.920	       102	    1200	    10.100
  20.940	        94	    1200	     9.695
  20.960	       101	    1200	    10.050
  20.980	       102	    1200	    10.100
  21.000	        92	    1200	     9.592
  21.020	       112	    1200	    10.583
  21.040	        93	    1200	     9.644
  21.060	        92	    1200	     9.592
  21.080	        99	    1200	     9.950
  21.100	        93	    1200	     9.644
  21.120	        92	    1200	     9.592
  21.140	        97	    1200	     9.849
  21.160	        80	    1200	     8.944
  21.180	        90	    1200	     9.487
  21.200	        93	    1200	     9.644
  21.220	        87	    1200	     9.327
  21.240	       110	    1200	    10.488
  21.260	       104	    1200	    10.198
  21.280	        85	    1200	     9.220
  21.300	        98	    1200	     9.899
  21.320	        85	    1200	     9.220
  21.340	        89	    1200	     9.434
  21.360	        96	    1200	     9.798
  21.380	       104	    1200	    10.198
  21.400	       102	    1200	    10.100
  21.420	       100	    1200	    10.000
  21.440	        90	    1200	     9.487
  21.460	        95	    1200	     9.747
  21.480	        94	    1200	     9.695
  21.500	        79	    1200	     8.888
  21.520	        91	    1200	     9.539
  21.540	       100	    1200	    10.000
  21.560	        85	    1200	     9.220
  21.580	        98	    1200	     9.899
  21.600	        87	    1200	     9.327
  21.620	        90	    1200	     9.487
  21.640	        96	    1200	     9.798
  21.660	        87	    1200	     9.327
  21.680	        91	    1200	     9.539
  21.700	        93	    1200	     9.644
  21.720	        90	    1200	     9.487
  21.740	        91	    1200	     9.539
  21.760	        97	    1200	     9.849
  21.780	        92	    1200	     9.592
  21.800	        80	    1200	     8.944
  21.820	        96	    1200	     9.798
  21.840	        96	    1200	     9.798
  21.860	        90	    1200	     9.487
  21.880	        88	    1200	     9.381
  21.900	        83	    1200	     9.110
  21.920	        91	    1200	     9.539
  21.940	        86	    1200	     9.274
  21.960	        85	    1200	     9.220
  21.980	        90	    1200	     9.487
  22.000	        83	    1200	     9.110
  22.020	       105	    1200	    10.247
  22.040	        93	    1200	     9.644
  22.060	        83	    1200	     9.110
  22.080	       103	    1200	    10.149
  22.100	        99	    1200	     9.950
  22.120	        83	    1200	     9.110
  22.140	        98	    1200	     9.899
  22.160	        74	    1200	     8.602
  22.180	        78	    1200	     8.832
  22.200	        84	    1200	     9.165
  22.220	        92	    1200	     9.592
  22.240	       101	    1200	    10.050
  22.260	       114	    1200	    10.677
  22.280	        91	    1200	     9.539
  22.300	       106	    1200	    10.296
  22.320	        88	    1200	     9.381
  22.340	        99	    1200	     9.950
  22.360	       121	    1200	    11.000
  22.380	       100	    1200	    10.000
  22.400	        98	    1200	     9.899
  22.420	       117	    1200	    10.817
  22.440	       120	    1200	    10.954
  22.460	       104	    1200	    10.198
  22.480	       124	    1200	    11.136
  22.500	       122	    1200	    11.045
  22.520	       109	    1200	    10.440
  22.540	       105	    1200	    10.247
  22.560	       117	    1200	    10.817
  22.580	        97	    1200	     9.849
  22.600	       107	    1200	    10.344
  22.620	       104	    1200	    10.198
  22.640	       107	    1200	    10.344
  22.660	        90	    1200	     9.487
  22.680	        78	    1200	     8.832
  22.700	       107	    1200	    10.344
  22.720	        98	    1200	     9.899
  22.740	        84	    1200	     9.165
  22.760	       100	    1200	    10.000
  22.780	        96	    1200	     9.798
  22.800	       109	    1200	    10.440
  22.820	       103	    1200	    10.149
  22.840	       110	    1200	    10.488
  22.860	        86	    1200	     9.274
  22.880	        97	    1200	     9.849
  22.900	       103	    1200	    10.149
  22.920	        92	    1200	     9.592
  22.940	        89	    1200	     9.434
  22.960	        90	    1200	     9.487
  22.980	       110	    1200	    10.488
  23.000	       102	    1200	    10.100
  23.020	       100	    1200	    10.000
  23.040	        94	    1200	     9.695
  23.060	        87	    1200	     9.327
  23.080	        79	    1200	     8.888
  23.100	        85	    1200	     9.220
  23.120	        74	    1200	     8.602
  23.140	        75	    1200	     8.660
  23.160	        85	    1200	     9.220
  23.180	        85	    1200	     9.220
  23.200	        84	    1200	     9.165
  23.220	        74	    1200	     8.602
  23.240	       102	    1200	    10.100
  23.260	        86	    1200	     9.274
  23.280	       100	    1200	    10.000
  23.300	        95	    1200	     9.747
  23.320	        80	    1200	     8.944
  23.340	        92	    1200	     9.592
  23.360	        84	    1200	     9.165
  23.380	        73	    1200	     8.544
  23.400	        85	    1200	     9.220
  23.420	        87	    1200	     9.327
  23.440	        68	    1200	     8.246
  23.460	        87	    1200	     9.327
  23.480	        92	    1200	     9.592
  23.500	        94	    1200	     9.695
  23.520	        69	    1200	     8.307
  23.540	        80	    1200	     8.944
  23.560	        76	    1200	     8.718
  23.580	        91	    1200	     9.539
  23.600	        83	    1200	     9.110
  23.620	        90	    1200	     9.487
  23.640	        98	    1200	     9.899
  23.660	        78	    1200	     8.832
  23.680	        84	    1200	     9.165
  23.700	        79	    1200	     8.888
  23.720	        87	    1200	     9.327
  23.740	        83	    1200	     9.110
  23.760	        79	    1200	     8.888
  23.780	        81	    1200	     9.000
  23.800	        80	    1200	     8.944
  23.820	        77	    1200	     8.775
  23.840	        82	    1200	     9.055
  23.860	       107	    1200	    10.344
  23.880	        68	    1200	     8.246
  23.900	        72	    1200	     8.485
  23.920	        76	    1200	     8.718
  23.940	        92	    1200	     9.592
  23.960	        65	    1200	     8.062
  23.980	        83	    1200	     9.110
  24.000	        76	    1200	     8.718
  24.020	        82	    1200	     9.055
  24.040	        67	    1200	     8.185
  24.060	        85	    1200	     9.220
  24.080	        63	    1200	     7.937
  24.100	        83	    1200	     9.110
  24.120	        92	    1200	     9.592
  24.140	        66	    1200	     8.124
  24.160	       109	    1200	    10.440
  24.180	        77	    1200	     8.775
  24.200	        75	    1200	     8.660
  24.220	       100	    1200	    10.000
  24.240	        81	    1200	     9.000
  24.260	        85	    1200	     9.220
  24.280	        81	    1200	     9.000
  24.300	        88	    1200	     9.381
  24.320	        86	    1200	     9.274
  24.340	        72	    1200	     8.485
  24.360	        91	    1200	     9.539
  24.380	        74	    1200	     8.602
  24.400	        95	    1200	     9.747
  24.420	        86	    1200	     9.274
  24.440	        69	    1200	     8.307
  24.460	        99	    1200	     9.950
  24.480	        83	    1200	     9.110
  24.500	        72	    1200	     8.485
  24.520	        94	    1200	     9.695
  24.540	        74	    1200	     8.602
  24.560	        79	    1200	     8.888
  24.580	        92	    1200	     9.592
  24.600	        78	    1200	     8.832
  24.620	        73	    1200	     8.544
  24.640	        76	    1200	     8.718
  24.660	        78	    1200	     8.832
  24.680	        82	    1200	     9.055
  24.700	        71	    1200	     8.426
  24.720	        89	    1200	     9.434
  24.740	        57	    1200	     7.550
  24.760	        68	    1200	     8.246
  24.780	        59	    1200	     7.681
  24.800	        67	    1200	     8.185
  24.820	        78	    1200	     8.832
  24.840	        74	    1200	     8.602
  24.860	        84	    1200	     9.165
  24.880	        82	    1200	     9.055
  24.900	        77	    1200	     8.775
  24.920	        70	    1200	     8.367
  24.940	        80	    1200	     8.944
  24.960	        76	    1200	     8.718
  24.980	        77	    1200	     8.775
  25.000	        77	    1200	     8.775
  25.020	        88	    1200	     9.381
  25.040	        69	    1200	     8.307
  25.060	        78	    1200	     8.832
  25.080	        70	    1200	     8.367
  25.100	        81	    1200	     9.000
  25.120	        65	    1200	     8.062
  25.140	        60	    1200	     7.746
  25.160	        77	    1200	     8.775
  25.180	        74	    1200	     8.602
  25.200	        70	    1200	     8.367
  25.220	        76	    1200	     8.718
  25.240	        76	    1200	     8.718
  25.260	        63	    1200	     7.937
  25.280	        89	    1200	     9.434
  25.300	        60	    1200	     7.746
  25.320	        65	    1200	     8.062
  25.340	        64	    1200	     8.000
  25.360	        66	    1200	     8.124
  25.380	        63	    1200	     7.937
  25.400	        71	    1200	     8.426
  25.420	        79	    1200	     8.888
  25.440	        76	    1200	     8.718
  25.460	        70	    1200	     8.367
  25.480	        65	    1200	     8.062
  25.500	        66	    1200	     8.124
  25.520	        73	    1200	     8.544
  25.540	        69	    1200	     8.307
  25.560	        65	    1200	     8.062
  25.580	        74	    1200	     8.602
  25.600	        65	    1200	     8.062
  25.620	        90	    1200	     9.487
  25.640	        62	    1200	     7.874
  25.660	        79	    1200	     8.888
  25.680	        80	    1200	     8.944
  25.700	        65	    1200	     8.062
  25.720	        62	    1200	     7.874
  25.740	        74	    1200	     8.602
  25.760	        84	    1200	     9.165
  25.780	        59	    1200	     7.681
  25.800	        65	    1200	     8.062
  25.820	        70	    1200	     8.367
  25.840	        65	    1200	     8.062
  25.860	        74	    1200	     8.602
  25.880	        73	    1200	     8.544
  25.900	        59	    1200	     7.681
  25.920	        65	    1200	     8.062
  25.940	        73	    1200	     8.544
  25.960	        80	    1200	     8.944
  25.980	        60	    1200	     7.746
  26.000	        59	    1200	     7.681
  26.020	        66	    1200	     8.124
  26.040	        71	    1200	     8.426
  26.060	        75	    1200	     8.660
  26.080	        59	    1200	     7.681
  26.100	        80	    1200	     8.944
  26.120	        77	    1200	     8.775
  26.140	        70	    1200	     8.367
  26.160	        62	    1200	     7.874
  26.180	        56	    1200	     7.483
  26.200	        77	    1200	     8.775
  26.220	        71	    1200	     8.426
  26.240	        81	    1200	     9.000
  26.260	        65	    1200	     8.062
  26.280	        79	    1200	     8.888
  26.300	        62	    1200	     7.874
  26.320	        66	    1200	     8.124
  26.340	        81	    1200	     9.000
  26.360	        78	    1200	     8.832
  26.380	        68	    1200	     8.246
  26.400	        58	    1200	     7.616
  26.420	        60	    1200	     7.746
  26.440	        65	    1200	     8.062
  26.460	        68	    1200	     8.246
  26.480	        63	    1200	     7.937
  26.500	        67	    1200	     8.185
  26.520	        52	    1200	     7.211
  26.540	        73	    1200	     8.544
  26.560	        59	    1200	     7.681
  26.580	        57	    1200	     7.550
  26.600	        62	    1200	     7.874
  26.620	        61	    1200	     7.810
  26.640	        53	    1200	     7.280
  26.660	        70	    1200	     8.367
  26.680	        62	    1200	     7.874
  26.700	        65	    1200	     8.062
  26.720	        53	    1200	     7.280
  26.740	        56	    1200	     7.483
  26.760	        60	    1200	     7.746
  26.780	        67	    1200	     8.185
  26.800	        67	    1200	     8.185
  26.820	        64	    1200	     8.000
  26.840	        50	    1200	     7.071
  26.860	        44	    1200	     6.633
  26.880	        84	    1200	     9.165
  26.900	        62	    1200	     7.874
  26.920	        60	    1200	     7.746
  26.940	        56	    1200	     7.483
  26.960	        54	    1200	     7.348
  26.980	        56	    1200	     7.483
  27.000	        47	    1200	     6.856
  27.020	        52	    1200	     7.211
  27.040	        55	    1200	     7.416
  27.060	        59	    1200	     7.681
  27.080	        54	    1200	     7.348
  27.100	        59	    1200	     7.681
  27.120	        59	    1200	     7.681
  27.140	        59	    1200	     7.681
  27.160	        59	    1200	     7.681
  27.180	        70	    1200	     8.367
  27.200	        67	    1200	     8.185
  27.220	        53	    1200	     7.280
  27.240	        59	    1200	     7.681
  27.260	        72	    1200	     8.485
  27.280	        64	    1200	     8.000
  27.300	        51	    1200	     7.141
  27.320	        47	    1200	     6.856
  27.340	        45	    1200	     6.708
  27.360	        49	    1200	     7.000
  27.380	        73	    1200	     8.544
  27.400	        47	    1200	     6.856
  27.420	        57	    1200	     7.550
  27.440	        53	    1200	     7.280
  27.460	        57	    1200	     7.550
  27.480	        57	    1200	     7.550
  27.500	        65	    1200	     8.062
  27.520	        46	    1200	     6.782
  27.540	        42	    1200	     6.481
  27.560	        66	    1200	     8.124
  27.580	        69	    1200	     8.307
  27.600	        55	    1200	     7.416
  27.620	        55	    1200	     7.416
  27.640	        55	    1200	     7.416
  27.660	        54	    1200	     7.348
  27.680	        57	    1200	     7.550
  27.700	        45	    1200	     6.708
  27.720	        54	    1200	     7.348
  27.740	        53	    1200	     7.280
  27.760	        57	    1200	     7.550
  27.780	        51	    1200	     7.141
  27.800	        46	    1200	     6.782
  27.820	        49	    1200	     7.000
  27.840	        50	    1200	     7.071
  27.860	        56	    1200	     7.483
  27.880	        53	    1200	     7.280
  27.900	        55	    1200	     7.416
  27.920	        55	    1200	     7.416
  27.940	        52	    1200	     7.211
  27.960	        52	    1200	     7.211
  27.980	        50	    1200	     7.071
  28.000	        44	    1200	     6.633
  28.020	        51	    1200	     7.141
  28.040	        55	    1200	     7.416
  28.060	        63	    1200	     7.937
  28.080	        46	    1200	     6.782
  28.100	        47	    1200	     6.856
  28.120	        44	    1200	     6.633
  28.140	        45	    1200	     6.708
  28.160	        49	    1200	     7.000
  28.180	        48	    1200	     6.928
  28.200	        48	    1200	     6.928
  28.220	        58	    1200	     7.616
  28.240	        49	    1200	     7.000
  28.260	        59	    1200	     7.681
  28.280	        42	    1200	     6.481
  28.300	        54	    1200	     7.348
  28.320	        72	    1200	     8.485
  28.340	        49	    1200	     7.000
  28.360	        45	    1200	     6.708
  28.380	        52	    1200	     7.211
  28.400	        50	    1200	     7.071
  28.420	        55	    1200	     7.416
  28.440	        55	    1200	     7.416
  28.460	        55	    1200	     7.416
  28.480	        63	    1200	     7.937
  28.500	        64	    1200	     8.000
  28.520	        49	    1200	     7.000
  28.540	        47	    1200	     6.856
  28.560	        60	    1200	     7.746
  28.580	        66	    1200	     8.124
  28.600	        56	    1200	     7.483
  28.620	        59	    1200	     7.681
  28.640	        58	    1200	     7.616
  28.660	        59	    1200	     7.681
  28.680	        53	    1200	     7.280
  28.700	        52	    1200	     7.211
  28.720	        45	    1200	     6.708
  28.740	        51	    1200	     7.141
  28.760	        62	    1200	     7.874
  28.780	        54	    1200	     7.348
  28.800	        60	    1200	     7.746
  28.820	        48	    1200	     6.928
  28.840	        69	    1200	     8.307
  28.860	        63	    1200	     7.937
  28.880	        44	    1200	     6.633
  28.900	        53	    1200	     7.280
  28.920	        55	    1200	     7.416
  28.940	        57	    1200	     7.550
  28.960	        53	    1200	     7.280
  28.980	        53	    1200	     7.280
  29.000	        58	    1200	     7.616
  29.020	        40	    1200	     6.325
  29.040	        51	    1200	     7.141
  29.060	        43	    1200	     6.557
  29.080	        68	    1200	     8.246
  29.100	        47	    1200	     6.856
  29.120	        50	    1200	     7.071
  29.140	        48	    1200	     6.928
  29.160	        41	    1200	     6.403
  29.180	        50	    1200	     7.071
  29.200	        44	    1200	     6.633
  29.220	        37	    1200	     6.083
  29.240	        33	    1200	     5.745
  29.260	        37	    1200	     6.083
  29.280	        52	    1200	     7.211
  29.300	        47	    1200	     6.856
  29.320	        53	    1200	     7.280
  29.340	        58	    1200	     7.616
  29.360	        56	    1200	     7.483
  29.380	        49	    1200	     7.000
  29.400	        39	    1200	     6.245
  29.420	        41	    1200	     6.403
  29.440	        38	    1200	     6.164
  29.460	        46	    1200	     6.782
  29.480	        50	    1200	     7.071
  29.500	        44	    1200	     6.633
  29.520	        38	    1200	     6.164
  29.540	        42	    1200	     6.481
  29.560	        49	    1200	     7.000
  29.580	        49	    1200	     7.000
  29.600	        47	    1200	     6.856
  29.620	        57	    1200	     7.550
  29.640	        45	    1200	     6.708
  29.660	        44	    1200	     6.633
  29.680	        44	    1200	     6.633
  29.700	        54	    1200	     7.348
  29.720	        52	    1200	     7.211
  29.740	        55	    1200	     7.416
  29.760	        45	    1200	     6.708
  29.780	        40	    1200	     6.325
  29.800	        46	    1200	     6.782
  29.820	        44	    1200	     6.633
  29.840	        42	    1200	     6.481
  29.860	        52	    1200	     7.211
  29.880	        40	    1200	     6.325
  29.900	        51	    1200	     7.141
  29.920	        38	    1200	     6.164
  29.940	        58	    1200	     7.616
  29.960	        42	    1200	     6.481
  29.980	        48	    1200	     6.928
  30.000	        43	    1200	     6.557
  30.020	        53	    1200	     7.280
  30.040	        48	    1200	     6.928
  30.060	        57	    1200	     7.550
  30.080	        36	    1200	     6.000
  30.100	        50	    1200	     7.071
  30.120	        48	    1200	     6.928
  30.140	        59	    1200	     7.681
  30.160	        48	    1200	     6.928
  30.180	        48	    1200	     6.928
  30.200	        46	    1200	     6.782
  30.220	        46	    1200	     6.782
  30.240	        46	    1200	     6.782
  30.260	        51	    1200	     7.141
  30.280	        33	    1200	     5.745
  30.300	        51	    1200	     7.141
  30.320	        43	    1200	     6.557
  30.340	        43	    1200	     6.557
  30.360	        49	    1200	     7.000
  30.380	        51	    1200	     7.141
  30.400	        41	    1200	     6.403
  30.420	        53	    1200	     7.280
  30.440	        42	    1200	     6.481
  30.460	        58	    1200	     7.616
  30.480	        54	    1200	     7.348
  30.500	        53	    1200	     7.280
  30.520	        42	    1200	     6.481
  30.540	        47	    1200	     6.856
  30.560	        47	    1200	     6.856
  30.580	        41	    1200	     6.403
  30.600	        54	    1200	     7.348
  30.620	        51	    1200	     7.141
  30.640	        53	    1200	     7.280
  30.660	        47	    1200	     6.856
  30.680	        53	    1200	     7.280
  30.700	        44	    1200	     6.633
  30.720	        58	    1200	     7.616
  30.740	        53	    1200	     7.280
  30.760	        39	    1200	     6.245
  30.780	        61	    1200	     7.810
  30.800	        58	    1200	     7.616
  30.820	        51	    1200	     7.141
  30.840	        58	    1200	     7.616
  30.860	        39	    1200	     6.245
  30.880	        74	    1200	     8.602
  30.900	        36	    1200	     6.000
  30.920	        61	    1200	     7.810
  30.940	        53	    1200	     7.280
  30.960	        52	    1200	     7.211
  30.980	        52	    1200	     7.211
  31.000	        54	    1200	     7.348
  31.020	        51	    1200	     7.141
  31.040	        51	    1200	     7.141
  31.060	        60	    1200	     7.746
  31.080	        62	    1200	     7.874
  31.100	        71	    1200	     8.426
  31.120	        73	    1200	     8.544
  31.140	        77	    1200	     8.775
  31.160	        83	    1200	     9.110
  31.180	        95	    1200	     9.747
  31.200	        98	    1200	     9.899
  31.220	       122	    1200	    11.045
  31.240	       168	    1200	    12.961
  31.260	       209	    1200	    14.457
  31.280	       240	    1200	    15.492
  31.300	       251	    1200	    15.843
  31.320	       279	    1200	    16.703
  31.340	       320	    1200	    17.889
  31.360	       342	    1200	    18.493
  31.380	       336	    1200	    18.330
  31.400	       325	    1200	    18.028
  31.420	       293	    1200	    17.117
  31.440	       305	    1200	    17.464
  31.460	       281	    1200	    16.763
  31.480	       259	    1200	    16.093
  31.500	       236	    1200	    15.362
  31.520	       231	    1200	    15.199
  31.540	       184	    1200	    13.565
  31.560	       174	    1200	    13.191
  31.580	       146	    1200	    12.083
  31.600	       189	    1200	    13.748
  31.620	       180	    1200	    13.416
  31.640	       192	    1200	    13.856
  31.660	       178	    1200	    13.342
  31.680	       148	    1200	    12.166
  31.700	       178	    1200	    13.342
  31.720	       153	    1200	    12.369
  31.740	       171	    1200	    13.077
  31.760	       211	    1200	    14.526
  31.780	       218	    1200	    14.765
  31.800	       253	    1200	    15.906
  31.820	       314	    1200	    17.720
  31.840	       324	    1200	    18.000
  31.860	       437	    1200	    20.905
  31.880	       533	    1200	    23.087
  31.900	       602	    1200	    24.536
  31.920	       769	    1200	    27.731
  31.940	       792	    1200	    28.142
  31.960	       943	    1200	    30.708
  31.980	       992	    1200	    31.496
  32.000	      1090	    1200	    33.015
  32.020	      1242	    1200	    35.242
  32.040	      1297	    1200	    36.014
  32.060	      1431	    1200	    37.829
  32.080	      1431	    1200	    37.829
  32.100	      1516	    1200	    38.936
  32.120	      1392	    1200	    37.310
  32.140	      1386	    1200	    37.229
  32.160	      1343	    1200	    36.647
  32.180	      1244	    1200	    35.270
  32.200	      1181	    1200	    34.366
  32.220	       992	    1200	    31.496
  32.240	       931	    1200	    30.512
  32.260	       775	    1200	    27.839
  32.280	       715	    1200	    26.739
  32.300	       605	    1200	    24.597
  32.320	       508	    1200	    22.539
  32.340	       423	    1200	    20.567
  32.360	       372	    1200	    19.287
  32.380	       289	    1200	    17.000
  32.400	       265	    1200	    16.279
  32.420	       255	    1200	    15.969
  32.440	       205	    1200	    14.318
  32.460	       195	    1200	    13.964
  32.480	       133	    1200	    11.533
  32.500	       143	    1200	    11.958
  32.520	       129	    1200	    11.358
  32.540	        92	    1200	     9.592
  32.560	       125	    1200	    11.180
  32.580	       112	    1200	    10.583
  32.600	        92	    1200	     9.592
  32.620	        79	    1200	     8.888
  32.640	        80	    1200	     8.944
  32.660	        72	    1200	     8.485
  32.680	        74	    1200	     8.602
  32.700	        75	    1200	     8.660
  32.720	        79	    1200	     8.888
  32.740	        64	    1200	     8.000
  32.760	        57	    1200	     7.550
  32.780	        64	    1200	     8.000
  32.800	        56	    1200	     7.483
  32.820	        61	    1200	     7.810
  32.840	        70	    1200	     8.367
  32.860	        53	    1200	     7.280
  32.880	        51	    1200	     7.141
  32.900	        57	    1200	     7.550
  32.920	        69	    1200	     8.307
  32.940	        48	    1200	     6.928
  32.960	        47	    1200	     6.856
  32.980	        42	    1200	     6.481
  33.000	        46	    1200	     6.782
  33.020	        50	    1200	     7.071
  33.040	        62	    1200	     7.874
  33.060	        72	    1200	     8.485
  33.080	        54	    1200	     7.348
  33.100	        58	    1200	     7.616
  33.120	        40	    1200	     6.325
  33.140	        46	    1200	     6.782
  33.160	        44	    1200	     6.633
  33.180	        59	    1200	     7.681
  33.200	        48	    1200	     6.928
  33.220	        52	    1200	     7.211
  33.240	        43	    1200	     6.557
  33.260	        43	    1200	     6.557
  33.280	        55	    1200	     7.416
  33.300	        47	    1200	     6.856
  33.320	        42	    1200	     6.481
  33.340	        55	    1200	     7.416
  33.360	        40	    1200	     6.325
  33.380	        50	    1200	     7.071
  33.400	        49	    1200	     7.000
  33.420	        44	    1200	     6.633
  33.440	        49	    1200	     7.000
  33.460	        38	    1200	     6.164
  33.480	        40	    1200	     6.325
  33.500	        39	    1200	     6.245
  33.520	        45	    1200	     6.708
  33.540	        42	    1200	     6.481
  33.560	        51	    1200	     7.141
  33.580	        40	    1200	     6.325
  33.600	        36	    1200	     6.000
  33.620	        43	    1200	     6.557
  33.640	        48	    1200	     6.928
  33.660	        40	    1200	     6.325
  33.680	        40	    1200	     6.325
  33.700	        30	    1200	     5.477
  33.720	        43	    1200	     6.557
  33.740	        33	    1200	     5.745
  33.760	        41	    1200	     6.403
  33.780	        42	    1200	     6.481
  33.800	        32	    1200	     5.657
  33.820	        35	    1200	     5.916
  33.840	        37	    1200	     6.083
  33.860	        40	    1200	     6.325
  33.880	        43	    1200	     6.557
  33.900	        35	    1200	     5.916
  33.920	        42	    1200	     6.481
  33.940	        30	    1200	     5.477
  33.960	        34	    1200	     5.831
  33.980	        43	    1200	     6.557
  34.000	        44	    1200	     6.633
  34.020	        48	    1200	     6.928
  34.040	        38	    1200	     6.164
  34.060	        39	    1200	     6.245
  34.080	        51	    1200	     7.141
  34.100	        37	    1200	     6.083
  34.120	        40	    1200	     6.325
  34.140	        45	    1200	     6.708
  34.160	        30	    1200	     5.477
  34.180	        41	    1200	     6.403
  34.200	        47	    1200	     6.856
  34.220	        42	    1200	     6.481
  34.240	        39	    1200	     6.245
  34.260	        39	    1200	     6.245
  34.280	        39	    1200	     6.245
  34.300	        30	    1200	     5.477
  34.320	        35	    1200	     5.916
  34.340	        34	    1200	     5.831
  34.360	        34	    1200	     5.831
  34.380	        30	    1200	     5.477
  34.400	        32	    1200	     5.657
  34.420	        42	    1200	     6.481
  34.440	        41	    1200	     6.403
  34.460	        40	    1200	     6.325
  34.480	        24	    1200	     4.899
  34.500	        26	    1200	     5.099
  34.520	        35	    1200	     5.916
  34.540	        29	    1200	     5.385
  34.560	        38	    1200	     6.164
  34.580	        25	    1200	     5.000
  34.600	        27	    1200	     5.196
  34.620	        22	    1200	     4.690
  34.640	        32	    1200	     5.657
  34.660	        29	    1200	     5.385
  34.680	        37	    1200	     6.083
  34.700	        30	    1200	     5.477
  34.720	        36	    1200	     6.000
  34.740	        37	    1200	     6.083
  34.760	        35	    1200	     5.916
  34.780	        38	    1200	     6.164
  34.800	        28	    1200	     5.292
  34.820	        27	    1200	     5.196
  34.840	        24	    1200	     4.899
  34.860	        25	    1200	     5.000
  34.880	        43	    1200	     6.557
  34.900	        32	    1200	     5.657
  34.920	        32	    1200	     5.657
  34.940	        35	    1200	     5.916
  34.960	        31	    1200	     5.568
  34.980	        24	    1200	     4.899
  35.000	        33	    1200	     5.745
  35.020	        35	    1200	     5.916
  35.040	        33	    1200	     5.745
  35.060	        40	    1200	     6.325
  35.080	        34	    1200	     5.831
  35.100	        29	    1200	     5.385
  35.120	        31	    1200	     5.568
  35.140	        25	    1200	     5.000
  35.160	        27	    1200	     5.196
  35.180	        30	    1200	     5.477
  35.200	        28	    1200	     5.292
  35.220	        31	    1200	     5.568
  35.240	        28	    1200	     5.292
  35.260	        33	    1200	     5.745
  35.280	        37	    1200	     6.083
  35.300	        18	    1200	     4.243
  35.320	        29	    1200	     5.385
  35.340	        39	    1200	     6.245
  35.360	        28	    1200	     5.292
  35.380	        42	    1200	     6.481
  35.400	        36	    1200	     6.000
  35.420	        17	    1200	     4.123
  35.440	        33	    1200	     5.745
  35.460	        30	    1200	     5.477
  35.480	        30	    1200	     5.477
  35.500	        28	    1200	     5.292
  35.520	        35	    1200	     5.916
  35.540	        32	    1200	     5.657
  35.560	        39	    1200	     6.245
  35.580	        21	    1200	     4.583
  35.600	        39	    1200	     6.245
  35.620	        35	    1200	     5.916
  35.640	        22	    1200	     4.690
  35.660	        30	    1200	     5.477
  35.680	        29	    1200	     5.385
  35.700	        32	    1200	     5.657
  35.720	        30	    1200	     5.477
  35.740	        28	    1200	     5.292
  35.760	        25	    1200	     5.000
  35.780	        48	    1200	     6.928
  35.800	        26	    1200	     5.099
  35.820	        43	    1200	     6.557
  35.840	        29	    1200	     5.385
  35.860	        30	    1200	     5.477
  35.880	        33	    1200	     5.745
  35.900	        20	    1200	     4.472
  35.920	        36	    1200	     6.000
  35.940	        30	    1200	     5.477
  35.960	        31	    1200	     5.568
  35.980	        34	    1200	     5.831
  36.000	        31	    1200	     5.568
  36.020	        30	    1200	     5.477
  36.040	        29	    1200	     5.385
  36.060	        33	    1200	     5.745
  36.080	        31	    1200	     5.568
  36.100	        33	    1200	     5.745
  36.120	        23	    1200	     4.796
  36.140	        22	    1200	     4.690
  36.160	        28	    1200	     5.292
  36.180	        27	    1200	     5.196
  36.200	        26	    1200	     5.099
  36.220	        28	    1200	     5.292
  36.240	        20	    1200	     4.472
  36.260	        28	    1200	     5.292
  36.280	        35	    1200	     5.916
  36.300	        27	    1200	     5.196
  36.320	        17	    1200	     4.123
  36.340	        36	    1200	     6.000
  36.360	        32	    1200	     5.657
  36.380	        29	    1200	     5.385
  36.400	        20	    1200	     4.472
  36.420	        24	    1200	     4.899
  36.440	        23	    1200	     4.796
  36.460	        30	    1200	     5.477
  36.480	        22	    1200	     4.690
  36.500	        27	    1200	     5.196
  36.520	        26	    1200	     5.099
  36.540	        15	    1200	     3.873
  36.560	        20	    1200	     4.472
  36.580	        22	    1200	     4.690
  36.600	        25	    1200	     5.000
  36.620	        23	    1200	     4.796
  36.640	        31	    1200	     5.568
  36.660	        16	    1200	     4.000
  36.680	        20	    1200	     4.472
  36.700	        23	    1200	     4.796
  36.720	        25	    1200	     5.000
  36.740	        20	    1200	     4.472
  36.760	        28	    1200	     5.292
  36.780	        25	    1200	     5.000
  36.800	        30	    1200	     5.477
  36.820	        32	    1200	     5.657
  36.840	        23	    1200	     4.796
  36.860	        30	    1200	     5.477
  36.880	        33	    1200	     5.745
  36.900	        24	    1200	     4.899
  36.920	        26	    1200	     5.099
  36.940	        18	    1200	     4.243
  36.960	        21	    1200	     4.583
  36.980	        22	    1200	     4.690
  37.000	        34	    1200	     5.831
  37.020	        21	    1200	     4.583
  37.040	        21	    1200	     4.583
  37.060	        23	    1200	     4.796
  37.080	        16	    1200	     4.000
  37.100	        23	    1200	     4.796
  37.120	        29	    1200	     5.385
  37.140	        27	    1200	     5.196
  37.160	        31	    1200	     5.568
  37.180	        30	    1200	     5.477
  37.200	        15	    1200	     3.873
  37.220	        22	    1200	     4.690
  37.240	        24	    1200	     4.899
  37.260	        19	    1200	     4.359
  37.280	        24	    1200	     4.899
  37.300	        24	    1200	     4.899
  37.320	        22	    1200	     4.690
  37.340	        28	    1200	     5.292
  37.360	        28	    1200	     5.292
  37.380	        33	    1200	     5.745
  37.400	        18	    1200	     4.243
  37.420	        28	    1200	     5.292
  37.440	        15	    1200	     3.873
  37.460	        24	    1200	     4.899
  37.480	        28	    1200	     5.292
  37.500	        31	    1200	     5.568
  37.520	        25	    1200	     5.000
  37.540	        22	    1200	     4.690
  37.560	        18	    1200	     4.243
  37.580	        26	    1200	     5.099
  37.600	        23	    1200	     4.796
  37.620	        24	    1200	     4.899
  37.640	        28	    1200	     5.292
  37.660	        26	    1200	     5.099
  37.680	        28	    1200	     5.292
  37.700	        22	    1200	     4.690
  37.720	        27	    1200	     5.196
  37.740	        17	    1200	     4.123
  37.760	        25	    1200	     5.000
  37.780	        28	    1200	     5.292
  37.800	        27	    1200	     5.196
  37.820	        27	    1200	     5.196
  37.840	        20	    1200	     4.472
  37.860	        21	    1200	     4.583
  37.880	        21	    1200	     4.583
  37.900	        26	    1200	     5.099
  37.920	        31	    1200	     5.568
  37.940	        38	    1200	     6.164
  37.960	        23	    1200	     4.796
  37.980	        24	    1200	     4.899
  38.000	        15	    1200	     3.873
  38.020	        25	    1200	     5.000
  38.040	        30	    1200	     5.477
  38.060	        23	    1200	     4.796
  38.080	        19	    1200	     4.359
  38.100	        18	    1200	     4.243
  38.120	        29	    1200	     5.385
  38.140	        24	    1200	     4.899
  38.160	        23	    1200	     4.796
  38.180	        25	    1200	     5.000
  38.200	        26	    1200	     5.099
  38.220	        32	    1200	     5.657
  38.240	        26	    1200	     5.099
  38.260	        19	    1200	     4.359
  38.280	        26	    1200	     5.099
  38.300	        24	    1200	     4.899
  38.320	        25	    1200	     5.000
  38.340	        22	    1200	     4.690
  38.360	        21	    1200	     4.583
  38.380	        20	    1200	     4.472
  38.400	        22	    1200	     4.690
  38.420	        23	    1200	     4.796
  38.440	        26	    1200	     5.099
  38.460	        29	    1200	     5.385
  38.480	        27	    1200	     5.196
  38.500	        39	    1200	     6.245
  38.520	        24	    1200	     4.899
  38.540	        26	    1200	     5.099
  38.560	        26	    1200	     5.099
  38.580	        29	    1200	     5.385
  38.600	        26	    1200	     5.099
  38.620	        28	    1200	     5.292
  38.640	        20	    1200	     4.472
  38.660	        29	    1200	     5.385
  38.680	        23	    1200	     4.796
  38.700	        24	    1200	     4.899
  38.720	        30	    1200	     5.477
  38.740	        19	    1200	     4.359
  38.760	        20	    1200	     4.472
  38.780	        29	    1200	     5.385
  38.800	        19	    1200	     4.359
  38.820	        23	    1200	     4.796
  38.840	        35	    1200	     5.916
  38.860	        38	    1200	     6.164
  38.880	        29	    1200	     5.385
  38.900	        31	    1200	     5.568
  38.920	        41	    1200	     6.403
  38.940	        39	    1200	     6.245
  38.960	        40	    1200	     6.325
  38.980	        37	    1200	     6.083
  39.000	        54	    1200	     7.348
  39.020	        42	    1200	     6.481
  39.040	        64	    1200	     8.000
  39.060	        55	    1200	     7.416
  39.080	        43	    1200	     6.557
  39.100	        50	    1200	     7.071
  39.120	        54	    1200	     7.348
  39.140	        49	    1200	     7.000
  39.160	        50	    1200	     7.071
  39.180	        58	    1200	     7.616
  39.200	        53	    1200	     7.280
  39.220	        53	    1200	     7.280
  39.240	        55	    1200	     7.416
  39.260	        47	    1200	     6.856
  39.280	        42	    1200	     6.481
  39.300	        62	    1200	     7.874
  39.320	        50	    1200	     7.071
  39.340	        47	    1200	     6.856
  39.360	        63	    1200	     7.937
  39.380	        62	    1200	     7.874
  39.400	        62	    1200	     7.874
  39.420	        54	    1200	     7.348
  39.440	        65	    1200	     8.062
  39.460	        62	    1200	     7.874
  39.480	        95	    1200	     9.747
  39.500	       112	    1200	    10.583
  39.520	       117	    1200	    10.817
  39.540	       131	    1200	    11.446
  39.560	       139	    1200	    11.790
  39.580	       157	    1200	    12.530
  39.600	       164	    1200	    12.806
  39.620	       194	    1200	    13.928
  39.640	       206	    1200	    14.353
  39.660	       210	    1200	    14.491
  39.680	       215	    1200	    14.663
  39.700	       208	    1200	    14.422
  39.720	       193	    1200	    13.892
  39.740	       188	    1200	    13.711
  39.760	       166	    1200	    12.884
  39.780	       158	    1200	    12.570
  39.800	       156	    1200	    12.490
  39.820	       110	    1200	    10.488
  39.840	       106	    1200	    10.296
  39.860	       103	    1200	    10.149
  39.880	        74	    1200	     8.602
  39.900	        66	    1200	     8.124
  39.920	        71	    1200	     8.426
  39.940	        59	    1200	     7.681
  39.960	        58	    1200	     7.616
  39.980	        54	    1200	     7.348
  40.000	        49	    1200	     7.000
  40.020	        42	    1200	     6.481
  40.040	        50	    1200	     7.071
  40.060	        49	    1200	     7.000
  40.080	        39	    1200	     6.245
  40.100	        44	    1200	     6.633
  40.120	        37	    1200	     6.083
  40.140	        32	    1200	     5.657
  40.160	        35	    1200	     5.916
  40.180	        32	    1200	     5.657
  40.200	        29	    1200	     5.385
  40.220	        28	    1200	     5.292
  40.240	        43	    1200	     6.557
  40.260	        45	    1200	     6.708
  40.280	        27	    1200	     5.196
  40.300	        38	    1200	     6.164
  40.320	        31	    1200	     5.568
  40.340	        39	    1200	     6.245
  40.360	        36	    1200	     6.000
  40.380	        32	    1200	     5.657
  40.400	        32	    1200	     5.657
  40.420	        24	    1200	     4.899
  40.440	        37	    1200	     6.083
  40.460	        42	    1200	     6.481
  40.480	        34	    1200	     5.831
  40.500	        30	    1200	     5.477
  40.520	        32	    1200	     5.657
  40.540	        22	    1200	     4.690
  40.560	        33	    1200	     5.745
  40.580	        30	    1200	     5.477
  40.600	        26	    1200	     5.099
  40.620	        40	    1200	     6.325
  40.640	        23	    1200	     4.796
  40.660	        34	    1200	     5.831
  40.680	        30	    1200	     5.477
  40.700	        48	    1200	     6.928
  40.720	        29	    1200	     5.385
  40.740	        25	    1200	     5.000
  40.760	        33	    1200	     5.745
  40.780	        49	    1200	     7.000
  40.800	        44	    1200	     6.633
  40.820	        56	    1200	     7.483
  40.840	        46	    1200	     6.782
  40.860	        52	    1200	     7.211
  40.880	        56	    1200	     7.483
  40.900	        55	    1200	     7.416
  40.920	        69	    1200	     8.307
  40.940	        68	    1200	     8.246
  40.960	        81	    1200	     9.000
  40.980	        75	    1200	     8.660
  41.000	        67	    1200	     8.185
  41.020	        73	    1200	     8.544
  41.040	        67	    1200	     8.185
  41.060	        77	    1200	     8.775
  41.080	        88	    1200	     9.381
  41.100	        77	    1200	     8.775
  41.120	        78	    1200	     8.832
  41.140	       110	    1200	    10.488
  41.160	       102	    1200	    10.100
  41.180	        99	    1200	     9.950
  41.200	        91	    1200	     9.539
  41.220	        89	    1200	     9.434
  41.240	       105	    1200	    10.247
  41.260	       101	    1200	    10.050
  41.280	        94	    1200	     9.695
  41.300	        75	    1200	     8.660
  41.320	        88	    1200	     9.381
  41.340	        82	    1200	     9.055
  41.360	        64	    1200	     8.000
  41.380	        60	    1200	     7.746
  41.400	        56	    1200	     7.483
  41.420	        52	    1200	     7.211
  41.440	        54	    1200	     7.348
  41.460	        38	    1200	     6.164
  41.480	        36	    1200	     6.000
  41.500	        41	    1200	     6.403
  41.520	        46	    1200	     6.782
  41.540	        32	    1200	     5.657
  41.560	        26	    1200	     5.099
  41.580	        29	    1200	     5.385
  41.600	        23	    1200	     4.796
  41.620	        26	    1200	     5.099
  41.640	        34	    1200	     5.831
  41.660	        34	    1200	     5.831
  41.680	        26	    1200	     5.099
  41.700	        26	    1200	     5.099
  41.720	        24	    1200	     4.899
  41.740	        17	    1200	     4.123
  41.760	        12	    1200	     3.464
  41.780	        24	    1200	     4.899
  41.800	        14	    1200	     3.742
  41.820	        33	    1200	     5.745
  41.840	        15	    1200	     3.873
  41.860	        22	    1200	     4.690
  41.880	        16	    1200	     4.000
  41.900	        23	    1200	     4.796
  41.920	        19	    1200	     4.359
  41.940	        13	    1200	     3.606
  41.960	        32	    1200	     5.657
  41.980	        21	    1200	     4.583
  42.000	        20	    1200	     4.472
  42.020	        26	    1200	     5.099
  42.040	        13	    1200	     3.606
  42.060	        26	    1200	     5.099
  42.080	        27	    1200	     5.196
  42.100	        19	    1200	     4.359
  42.120	        27	    1200	     5.196
  42.140	        17	    1200	     4.123
  42.160	        20	    1200	     4.472
  42.180	        21	    1200	     4.583
  42.200	        20	    1200	     4.472
  42.220	        32	    1200	     5.657
  42.240	        21	    1200	     4.583
  42.260	        27	    1200	     5.196
  42.280	        18	    1200	     4.243
  42.300	        13	    1200	     3.606
  42.320	        24	    1200	     4.899
  42.340	        20	    1200	     4.472
  42.360	        24	    1200	     4.899
  42.380	        12	    1200	     3.464
  42.400	        19	    1200	     4.359
  42.420	        24	    1200	     4.899
  42.440	        22	    1200	     4.690
  42.460	        19	    1200	     4.359
  42.480	        22	    1200	     4.690
  42.500	        21	    1200	     4.583
  42.520	        29	    1200	     5.385
  42.540	        25	    1200	     5.000
  42.560	        20	    1200	     4.472
  42.580	        17	    1200	     4.123
  42.600	        22	    1200	     4.690
  42.620	        21	    1200	     4.583
  42.640	        23	    1200	     4.796
  42.660	        18	    1200	     4.243
  42.680	        20	    1200	     4.472
  42.700	        20	    1200	     4.472
  42.720	        13	    1200	     3.606
  42.740	        15	    1200	     3.873
  42.760	        12	    1200	     3.464
  42.780	        17	    1200	     4.123
  42.800	        14	    1200	     3.742
  42.820	        19	    1200	     4.359
  42.840	        19	    1200	     4.359
  42.860	        16	    1200	     4.000
  42.880	        13	    1200	     3.606
  42.900	        14	    1200	     3.742
  42.920	        14	    1200	     3.742
  42.940	        13	    1200	     3.606
  42.960	        21	    1200	     4.583
  42.980	        17	    1200	     4.123
  43.000	        17	    1200	     4.123
  43.020	        14	    1200	     3.742
  43.040	        22	    1200	     4.690
  43.060	        21	    1200	     4.583
  43.080	        20	    1200	     4.472
  43.100	        17	    1200	     4.123
  43.120	        18	    1200	     4.243
  43.140	        25	    1200	     5.000
  43.160	        16	    1200	     4.000
  43.180	        22	    1200	     4.690
  43.200	        21	    1200	     4.583
  43.220	        27	    1200	     5.196
  43.240	        17	    1200	     4.123
  43.260	        22	    1200	     4.690
  43.280	        21	    1200	     4.583
  43.300	        21	    1200	     4.583
  43.320	        22	    1200	     4.690
  43.340	        21	    1200	     4.583
  43.360	        22	    1200	     4.690
  43.380	        35	    1200	     5.916
  43.400	        31	    1200	     5.568
  43.420	        21	    1200	     4.583
  43.440	        25	    1200	     5.000
  43.460	        31	    1200	     5.568
  43.480	        27	    1200	     5.196
  43.500	        28	    1200	     5.292
  43.520	        29	    1200	     5.385
  43.540	        28	    1200	     5.292
  43.560	        44	    1200	     6.633
  43.580	        35	    1200	     5.916
  43.600	        26	    1200	     5.099
  43.620	        36	    1200	     6.000
  43.640	        36	    1200	     6.000
  43.660	        30	    1200	     5.477
  43.680	        41	    1200	     6.403
  43.700	        43	    1200	     6.557
  43.720	        42	    1200	     6.481
  43.740	        43	    1200	     6.557
  43.760	        34	    1200	     5.831
  43.780	        25	    1200	     5.000
  43.800	        32	    1200	     5.657
  43.820	        31	    1200	     5.568
  43.840	        40	    1200	     6.325
  43.860	        38	    1200	     6.164
  43.880	        21	    1200	     4.583
  43.900	        31	    1200	     5.568
  43.920	        32	    1200	     5.657
  43.940	        23	    1200	     4.796
  43.960	        34	    1200	     5.831
  43.980	        35	    1200	     5.916
  44.000	        25	    1200	     5.000
  44.020	        24	    1200	     4.899
  44.040	        31	    1200	     5.568
  44.060	        32	    1200	     5.657
  44.080	        29	    1200	     5.385
  44.100	        20	    1200	     4.472
  44.120	        26	    1200	     5.099
  44.140	        24	    1200	     4.899
  44.160	        25	    1200	     5.000
  44.180	        37	    1200	     6.083
  44.200	        34	    1200	     5.831
  44.220	        32	    1200	     5.657
  44.240	        35	    1200	     5.916
  44.260	        42	    1200	     6.481
  44.280	        44	    1200	     6.633
  44.300	        33	    1200	     5.745
  44.320	        48	    1200	     6.928
  44.340	        51	    1200	     7.141
  44.360	        60	    1200	     7.746
  44.380	        61	    1200	     7.810
  44.400	        82	    1200	     9.055
  44.420	        64	    1200	     8.000
  44.440	        90	    1200	     9.487
  44.460	        79	    1200	     8.888
  44.480	        99	    1200	     9.950
  44.500	        75	    1200	     8.660
  44.520	        64	    1200	     8.000
  44.540	        74	    1200	     8.602
  44.560	        66	    1200	     8.124
  44.580	        59	    1200	     7.681
  44.600	        47	    1200	     6.856
  44.620	        58	    1200	     7.616
  44.640	        51	    1200	     7.141
  44.660	        49	    1200	     7.000
  44.680	        43	    1200	     6.557
  44.700	        39	    1200	     6.245
  44.720	        30	    1200	     5.477
  44.740	        30	    1200	     5.477
  44.760	        52	    1200	     7.211
  44.780	        39	    1200	     6.245
  44.800	        23	    1200	     4.796
  44.820	        23	    1200	     4.796
  44.840	        32	    1200	     5.657
  44.860	        21	    1200	     4.583
  44.880	        30	    1200	     5.477
  44.900	        23	    1200	     4.796
  44.920	        29	    1200	     5.385
  44.940	        34	    1200	     5.831
  44.960	        29	    1200	     5.385
  44.980	        29	    1200	     5.385
  45.000	        18	    1200	     4.243
  45.020	        29	    1200	     5.385
  45.040	        19	    1200	     4.359
  45.060	        32	    1200	     5.657
  45.080	        32	    1200	     5.657
  45.100	        45	    1200	     6.708
  45.120	        42	    1200	     6.481
  45.140	        44	    1200	     6.633
  45.160	        33	    1200	     5.745
  45.180	        38	    1200	     6.164
  45.200	        51	    1200	     7.141
  45.220	        40	    1200	     6.325
  45.240	        47	    1200	     6.856
  45.260	        37	    1200	     6.083
  45.280	        39	    1200	     6.245
  45.300	        53	    1200	     7.280
  45.320	        48	    1200	     6.928
  45.340	        47	    1200	     6.856
  45.360	        48	    1200	     6.928
  45.380	        48	    1200	     6.928
  45.400	        61	    1200	     7.810
  45.420	        55	    1200	     7.416
  45.440	        62	    1200	     7.874
  45.460	        59	    1200	     7.681
  45.480	        56	    1200	     7.483
  45.500	        78	    1200	     8.832
  45.520	        87	    1200	     9.327
  45.540	        95	    1200	     9.747
  45.560	        85	    1200	     9.220
  45.580	       110	    1200	    10.488
  45.600	       121	    1200	    11.000
  45.620	       124	    1200	    11.136
  45.640	       134	    1200	    11.576
  45.660	       150	    1200	    12.247
  45.680	       164	    1200	    12.806
  45.700	       177	    1200	    13.304
  45.720	       155	    1200	    12.450
  45.740	       167	    1200	    12.923
  45.760	       167	    1200	    12.923
  45.780	       172	    1200	    13.115
  45.800	       180	    1200	    13.416
  45.820	       170	    1200	    13.038
  45.840	       153	    1200	    12.369
  45.860	       205	    1200	    14.318
  45.880	       191	    1200	    13.820
  45.900	       184	    1200	    13.565
  45.920	       207	    1200	    14.387
  45.940	       231	    1200	    15.199
  45.960	       255	    1200	    15.969
  45.980	       276	    1200	    16.613
  46.000	       283	    1200	    16.823
  46.020	       313	    1200	    17.692
  46.040	       314	    1200	    17.720
  46.060	       373	    1200	    19.313
  46.080	       369	    1200	    19.209
  46.100	       405	    1200	    20.125
  46.120	       416	    1200	    20.396
  46.140	       407	    1200	    20.174
  46.160	       457	    1200	    21.378
  46.180	       459	    1200	    21.424
  46.200	       438	    1200	    20.928
  46.220	       404	    1200	    20.100
  46.240	       427	    1200	    20.664
  46.260	       428	    1200	    20.688
  46.280	       408	    1200	    20.199
  46.300	       403	    1200	    20.075
  46.320	       379	    1200	    19.468
  46.340	       323	    1200	    17.972
  46.360	       296	    1200	    17.205
  46.380	       309	    1200	    17.578
  46.400	       287	    1200	    16.941
  46.420	       275	    1200	    16.583
  46.440	       240	    1200	    15.492
  46.460	       224	    1200	    14.967
  46.480	       196	    1200	    14.000
  46.500	       203	    1200	    14.248
  46.520	       117	    1200	    10.817
  46.540	       159	    1200	    12.610
  46.560	       123	    1200	    11.091
  46.580	        96	    1200	     9.798
  46.600	       124	    1200	    11.136
  46.620	        88	    1200	     9.381
  46.640	        90	    1200	     9.487
  46.660	        75	    1200	     8.660
  46.680	        74	    1200	     8.602
  46.700	        67	    1200	     8.185
  46.720	        43	    1200	     6.557
  46.740	        61	    1200	     7.810
  46.760	        48	    1200	     6.928
  46.780	        50	    1200	     7.071
  46.800	        44	    1200	     6.633
  46.820	        45	    1200	     6.708
  46.840	        42	    1200	     6.481
  46.860	        38	    1200	     6.164
  46.880	        36	    1200	     6.000
  46.900	        35	    1200	     5.916
  46.920	        44	    1200	     6.633
  46.940	        30	    1200	     5.477
  46.960	        47	    1200	     6.856
  46.980	        41	    1200	     6.403
  47.000	        33	    1200	     5.745
  47.020	        32	    1200	     5.657
  47.040	        37	    1200	     6.083
  47.060	        30	    1200	     5.477
  47.080	        40	    1200	     6.325
  47.100	        52	    1200	     7.211
  47.120	        36	    1200	     6.000
  47.140	        44	    1200	     6.633
  47.160	        48	    1200	     6.928
  47.180	        48	    1200	     6.928
  47.200	        54	    1200	     7.348
  47.220	        38	    1200	     6.164
  47.240	        34	    1200	     5.831
  47.260	        49	    1200	     7.000
  47.280	        57	    1200	     7.550
  47.300	        31	    1200	     5.568
  47.320	        44	    1200	     6.633
  47.340	        36	    1200	     6.000
  47.360	        29	    1200	     5.385
  47.380	        46	    1200	     6.782
  47.400	        49	    1200	     7.000
  47.420	        37	    1200	     6.083
  47.440	        40	    1200	     6.325
  47.460	        36	    1200	     6.000
  47.480	        24	    1200	     4.899
  47.500	        29	    1200	     5.385
  47.520	        39	    1200	     6.245
  47.540	        40	    1200	     6.325
  47.560	        36	    1200	     6.000
  47.580	        28	    1200	     5.292
  47.600	        20	    1200	     4.472
  47.620	        26	    1200	     5.099
  47.640	        29	    1200	     5.385
  47.660	        33	    1200	     5.745
  47.680	        31	    1200	     5.568
  47.700	        33	    1200	     5.745
  47.720	        25	    1200	     5.000
  47.740	        26	    1200	     5.099
  47.760	        35	    1200	     5.916
  47.780	        25	    1200	     5.000
  47.800	        38	    1200	     6.164
  47.820	        36	    1200	     6.000
  47.840	        32	    1200	     5.657
  47.860	        34	    1200	     5.831
  47.880	        25	    1200	     5.000
  47.900	        31	    1200	     5.568
  47.920	        22	    1200	     4.690
  47.940	        23	    1200	     4.796
  47.960	        26	    1200	     5.099
  47.980	        24	    1200	     4.899
  48.000	        19	    1200	     4.359
  48.020	        30	    1200	     5.477
  48.040	        25	    1200	     5.000
  48.060	        23	    1200	     4.796
  48.080	        16	    1200	     4.000
  48.100	        20	    1200	     4.472
  48.120	        25	    1200	     5.000
  48.140	        22	    1200	     4.690
  48.160	        29	    1200	     5.385
  48.180	        22	    1200	     4.690
  48.200	        28	    1200	     5.292
  48.220	        24	    1200	     4.899
  48.240	        14	    1200	     3.742
  48.260	        23	    1200	     4.796
  48.280	        15	    1200	     3.873
  48.300	        21	    1200	     4.583
  48.320	        14	    1200	     3.742
  48.340	         9	    1200	     3.000
  48.360	        18	    1200	     4.243
  48.380	        20	    1200	     4.472
  48.400	        25	    1200	     5.000
  48.420	        20	    1200	     4.472
  48.440	        23	    1200	     4.796
  48.460	        21	    1200	     4.583
  48.480	        17	    1200	     4.123
  48.500	        13	    1200	     3.606
  48.520	        18	    1200	     4.243
  48.540	        22	    1200	     4.690
  48.560	        18	    1200	     4.243
  48.580	        18	    1200	     4.243
  48.600	        19	    1200	     4.359
  48.620	        19	    1200	     4.359
  48.640	        12	    1200	     3.464
  48.660	        17	    1200	     4.123
  48.680	        20	    1200	     4.472
  48.700	        13	    1200	     3.606
  48.720	        11	    1200	     3.317
  48.740	        13	    1200	     3.606
  48.760	        16	    1200	     4.000
  48.780	        19	    1200	     4.359
  48.800	        18	    1200	     4.243
  48.820	        20	    1200	     4.472
  48.840	         7	    1200	     2.646
  48.860	        29	    1200	     5.385
  48.880	        13	    1200	     3.606
  48.900	        16	    1200	     4.000
  48.920	        22	    1200	     4.690
  48.940	        14	    1200	     3.742
  48.960	         9	    1200	     3.000
  48.980	        19	    1200	     4.359
  49.000	        23	    1200	     4.796
  49.020	        13	    1200	     3.606
  49.040	        19	    1200	     4.359
  49.060	        20	    1200	     4.472
  49.080	        12	    1200	     3.464
  49.100	        15	    1200	     3.873
  49.120	        14	    1200	     3.742
  49.140	        16	    1200	     4.000
  49.160	        22	    1200	     4.690
  49.180	        25	    1200	     5.000
  49.200	        15	    1200	     3.873
  49.220	        23	    1200	     4.796
  49.240	        20	    1200	     4.472
  49.260	        15	    1200	     3.873
  49.280	        15	    1200	     3.873
  49.300	        16	    1200	     4.000
  49.320	        11	    1200	     3.317
  49.340	        12	    1200	     3.464
  49.360	        15	    1200	     3.873
  49.380	        19	    1200	     4.359
  49.400	        18	    1200	     4.243
  49.420	        19	    1200	     4.359
  49.440	        20	    1200	     4.472
  49.460	        18	    1200	     4.243
  49.480	        19	    1200	     4.359
  49.500	         5	    1200	     2.236
  49.520	        16	    1200	     4.000
  49.540	        13	    1200	     3.606
  49.560	        21	    1200	     4.583
  49.580	        19	    1200	     4.359
  49.600	        15	    1200	     3.873
  49.620	        18	    1200	     4.243
  49.640	        22	    1200	     4.690
  49.660	        11	    1200	     3.317
  49.680	        14	    1200	     3.742
  49.700	        17	    1200	     4.123
  49.720	        14	    1200	     3.742
  49.740	        12	    1200	     3.464
  49.760	        21	    1200	     4.583
  49.780	        16	    1200	     4.000
  49.800	        14	    1200	     3.742
  49.820	        12	    1200	     3.464
  49.840	        16	    1200	     4.000
  49.860	        16	    1200	     4.000
  49.880	        15	    1200	     3.873
  49.900	        10	    1200	     3.162
  49.920	         7	    1200	     2.646
  49.940	        15	    1200	     3.873
  49.960	        12	    1200	     3.464
  49.980	        13	    1200	     3.606
  50.000	        14	    1200	     3.742
  50.020	        11	    1200	     3.317
  50.040	        17	    1200	     4.123
  50.060	        16	    1200	     4.000
  50.080	        17	    1200	     4.123
  50.100	        15	    1200	     3.873
  50.120	        17	    1200	     4.123
  50.140	         9	    1200	     3.000
  50.160	        14	    1200	     3.742
  50.180	        21	    1200	     4.583
  50.200	        19	    1200	     4.359
  50.220	        17	    1200	     4.123
  50.240	        12	    1200	     3.464
  50.260	        16	    1200	     4.000
  50.280	        18	    1200	     4.243
  50.300	        14	    1200	     3.742
  50.320	        15	    1200	     3.873
  50.340	        18	    1200	     4.243
  50.360	        12	    1200	     3.464
  50.380	        17	    1200	     4.123
  50.400	        12	    1200	     3.464
  50.420	        16	    1200	     4.000
  50.440	        18	    1200	     4.243
  50.460	        15	    1200	     3.873
  50.480	        19	    1200	     4.359
  50.500	        14	    1200	     3.742
  50.520	        25	    1200	     5.000
  50.540	        14	    1200	     3.742
  50.560	        15	    1200	     3.873
  50.580	        17	    1200	     4.123
  50.600	        16	    1200	     4.000
  50.620	        17	    1200	     4.123
  50.640	        22	    1200	     4.690
  50.660	        16	    1200	     4.000
  50.680	        11	    1200	     3.317
  50.700	        18	    1200	     4.243
  50.720	        13	    1200	     3.606
  50.740	        14	    1200	     3.742
  50.760	        11	    1200	     3.317
  50.780	        20	    1200	     4.472
  50.800	        18	    1200	     4.243
  50.820	        20	    1200	     4.472
  50.840	        20	    1200	     4.472
  50.860	        21	    1200	     4.583
  50.880	        22	    1200	     4.690
  50.900	        20	    1200	     4.472
  50.920	         8	    1200	     2.828
  50.940	        10	    1200	     3.162
  50.960	        14	    1200	     3.742
  50.980	        15	    1200	     3.873
  51.000	        15	    1200	     3.873
  51.020	        15	    1200	     3.873
  51.040	        24	    1200	     4.899
  51.060	        15	    1200	     3.873
  51.080	        24	    1200	     4.899
  51.100	        19	    1200	     4.359
  51.120	        16	    1200	     4.000
  51.140	        15	    1200	     3.873
  51.160	        25	    1200	     5.000
  51.180	        18	    1200	     4.243
  51.200	        25	    1200	     5.000
  51.220	        23	    1200	     4.796
  51.240	        26	    1200	     5.099
  51.260	        24	    1200	     4.899
  51.280	        18	    1200	     4.243
  51.300	        25	    1200	     5.000
  51.320	        18	    1200	     4.243
  51.340	        25	    1200	     5.000
  51.360	        22	    1200	     4.690
  51.380	        25	    1200	     5.000
  51.400	        22	    1200	     4.690
  51.420	        20	    1200	     4.472
  51.440	        26	    1200	     5.099
  51.460	        22	    1200	     4.690
  51.480	        26	    1200	     5.099
  51.500	        20	    1200	     4.472
  51.520	        25	    1200	     5.000
  51.540	        29	    1200	     5.385
  51.560	        21	    1200	     4.583
  51.580	        23	    1200	     4.796
  51.600	        24	    1200	     4.899
  51.620	        22	    1200	     4.690
  51.640	        17	    1200	     4.123
  51.660	        24	    1200	     4.899
  51.680	        25	    1200	     5.000
  51.700	        24	    1200	     4.899
  51.720	        27	    1200	     5.196
  51.740	        23	    1200	     4.796
  51.760	        33	    1200	     5.745
  51.780	        25	    1200	     5.000
  51.800	        23	    1200	     4.796
  51.820	        30	    1200	     5.477
  51.840	        20	    1200	     4.472
  51.860	        34	    1200	     5.831
  51.880	        29	    1200	     5.385
  51.900	        23	    1200	     4.796
  51.920	        28	    1200	     5.292
  51.940	        32	    1200	     5.657
  51.960	        53	    1200	     7.280
  51.980	        40	    1200	     6.325
  52.000	        35	    1200	     5.916
  52.020	        23	    1200	     4.796
  52.040	        39	    1200	     6.245
  52.060	        35	    1200	     5.916
  52.080	        39	    1200	     6.245
  52.100	        27	    1200	     5.196
  52.120	        32	    1200	     5.657
  52.140	        25	    1200	     5.000
  52.160	        27	    1200	     5.196
  52.180	        36	    1200	     6.000
  52.200	        30	    1200	     5.477
  52.220	        23	    1200	     4.796
  52.240	        30	    1200	     5.477
  52.260	        31	    1200	     5.568
  52.280	        22	    1200	     4.690
  52.300	        23	    1200	     4.796
  52.320	        23	    1200	     4.796
  52.340	        25	    1200	     5.000
  52.360	        18	    1200	     4.243
  52.380	        24	    1200	     4.899
  52.400	        26	    1200	     5.099
  52.420	        30	    1200	     5.477
  52.440	        23	    1200	     4.796
  52.460	        34	    1200	     5.831
  52.480	        32	    1200	     5.657
  52.500	        30	    1200	     5.477
  52.520	        15	    1200	     3.873
  52.540	        15	    1200	     3.873
  52.560	        25	    1200	     5.000
  52.580	        29	    1200	     5.385
  52.600	        13	    1200	     3.606
  52.620	        27	    1200	     5.196
  52.640	        23	    1200	     4.796
  52.660	        18	    1200	     4.243
  52.680	        26	    1200	     5.099
  52.700	        18	    1200	     4.243
  52.720	        17	    1200	     4.123
  52.740	        12	    1200	     3.464
  52.760	        20	    1200	     4.472
  52.780	        21	    1200	     4.583
  52.800	        14	    1200	     3.742
  52.820	        19	    1200	     4.359
  52.840	        16	    1200	     4.000
  52.860	        16	    1200	     4.000
  52.880	        22	    1200	     4.690
  52.900	        26	    1200	     5.099
  52.920	        17	    1200	     4.123
  52.940	        18	    1200	     4.243
  52.960	        19	    1200	     4.359
  52.980	        19	    1200	     4.359
  53.000	        15	    1200	     3.873
  53.020	        12	    1200	     3.464
  53.040	        25	    1200	     5.000
  53.060	        21	    1200	     4.583
  53.080	        22	    1200	     4.690
  53.100	        18	    1200	     4.243
  53.120	        14	    1200	     3.742
  53.140	        24	    1200	     4.899
  53.160	        26	    1200	     5.099
  53.180	        19	    1200	     4.359
  53.200	        19	    1200	     4.359
  53.220	        22	    1200	     4.690
  53.240	        24	    1200	     4.899
  53.260	        22	    1200	     4.690
  53.280	        27	    1200	     5.196
  53.300	        17	    1200	     4.123
  53.320	        22	    1200	     4.690
  53.340	        23	    1200	     4.796
  53.360	        17	    1200	     4.123
  53.380	        21	    1200	     4.583
  53.400	        22	    1200	     4.690
  53.420	        29	    1200	     5.385
  53.440	        15	    1200	     3.873
  53.460	        21	    1200	     4.583
  53.480	        13	    1200	     3.606
  53.500	        19	    1200	     4.359
  53.520	        15	    1200	     3.873
  53.540	        21	    1200	     4.583
  53.560	        15	    1200	     3.873
  53.580	        16	    1200	     4.000
  53.600	        16	    1200	     4.000
  53.620	        15	    1200	     3.873
  53.640	         6	    1200	     2.449
  53.660	        21	    1200	     4.583
  53.680	        12	    1200	     3.464
  53.700	        13	    1200	     3.606
  53.720	        18	    1200	     4.243
  53.740	        16	    1200	     4.000
  53.760	        16	    1200	     4.000
  53.780	        18	    1200	     4.243
  53.800	        21	    1200	     4.583
  53.820	        13	    1200	     3.606
  53.840	        10	    1200	     3.162
  53.860	        18	    1200	     4.243
  53.880	        14	    1200	     3.742
  53.900	         9	    1200	     3.000
  53.920	        17	    1200	     4.123
  53.940	         9	    1200	     3.000
  53.960	        18	    1200	     4.243
  53.980	        15	    1200	     3.873
  54.000	        17	    1200	     4.123
  54.020	        14	    1200	     3.742
  54.040	        14	    1200	     3.742
  54.060	        20	    1200	     4.472
  54.080	        21	    1200	     4.583
  54.100	        10	    1200	     3.162
  54.120	         7	    1200	     2.646
  54.140	        25	    1200	     5.000
  54.160	        22	    1200	     4.690
  54.180	        21	    1200	     4.583
  54.200	        18	    1200	     4.243
  54.220	        19	    1200	     4.359
  54.240	        20	    1200	     4.472
  54.260	        12	    1200	     3.464
  54.280	        16	    1200	     4.000
  54.300	        14	    1200	     3.742
  54.320	        11	    1200	     3.317
  54.340	        15	    1200	     3.873
  54.360	        15	    1200	     3.873
  54.380	        18	    1200	     4.243
  54.400	        14	    1200	     3.742
  54.420	        15	    1200	     3.873
  54.440	        27	    1200	     5.196
  54.460	        15	    1200	     3.873
  54.480	        12	    1200	     3.464
  54.500	        11	    1200	     3.317
  54.520	        10	    1200	     3.162
  54.540	        15	    1200	     3.873
  54.560	        11	    1200	     3.317
  54.580	        18	    1200	     4.243
  54.600	        20	    1200	     4.472
  54.620	        25	    1200	     5.000
  54.640	        29	    1200	     5.385
  54.660	        20	    1200	     4.472
  54.680	        15	    1200	     3.873
  54.700	        21	    1200	     4.583
  54.720	        28	    1200	     5.292
  54.740	        18	    1200	     4.243
  54.760	        21	    1200	     4.583
  54.780	        17	    1200	     4.123
  54.800	        25	    1200	     5.000
  54.820	        22	    1200	     4.690
  54.840	        25	    1200	     5.000
  54.860	        12	    1200	     3.464
  54.880	        17	    1200	     4.123
  54.900	        24	    1200	     4.899
  54.920	        25	    1200	     5.000
  54.940	        17	    1200	     4.123
  54.960	        13	    1200	     3.606
  54.980	        19	    1200	     4.359
  55.000	        24	    1200	     4.899
  55.020	        19	    1200	     4.359
  55.040	        19	    1200	     4.359
  55.060	        21	    1200	     4.583
  55.080	        18	    1200	     4.243
  55.100	        25	    1200	     5.000
  55.120	        22	    1200	     4.690
  55.140	        27	    1200	     5.196
  55.160	        24	    1200	     4.899
  55.180	        26	    1200	     5.099
  55.200	        30	    1200	     5.477
  55.220	        38	    1200	     6.164
  55.240	        25	    1200	     5.000
  55.260	        35	    1200	     5.916
  55.280	        38	    1200	     6.164
  55.300	        26	    1200	     5.099
  55.320	        43	    1200	     6.557
  55.340	        25	    1200	     5.000
  55.360	        37	    1200	     6.083
  55.380	        26	    1200	     5.099
  55.400	        31	    1200	     5.568
  55.420	        46	    1200	     6.782
  55.440	        29	    1200	     5.385
  55.460	        33	    1200	     5.745
  55.480	        53	    1200	     7.280
  55.500	        35	    1200	     5.916
  55.520	        38	    1200	     6.164
  55.540	        43	    1200	     6.557
  55.560	        37	    1200	     6.083
  55.580	        37	    1200	     6.083
  55.600	        35	    1200	     5.916
  55.620	        39	    1200	     6.245
  55.640	        31	    1200	     5.568
  55.660	        28	    1200	     5.292
  55.680	        33	    1200	     5.745
  55.700	        25	    1200	     5.000
  55.720	        23	    1200	     4.796
  55.740	        33	    1200	     5.745
  55.760	        30	    1200	     5.477
  55.780	        20	    1200	     4.472
  55.800	        29	    1200	     5.385
  55.820	        28	    1200	     5.292
  55.840	        31	    1200	     5.568
  55.860	        32	    1200	     5.657
  55.880	        30	    1200	     5.477
  55.900	        31	    1200	     5.568
  55.920	        26	    1200	     5.099
  55.940	        33	    1200	     5.745
  55.960	        30	    1200	     5.477
  55.980	        30	    1200	     5.477
  56.000	        26	    1200	     5.099
  56.020	        23	    1200	     4.796
  56.040	        29	    1200	     5.385
  56.060	        26	    1200	     5.099
  56.080	        24	    1200	     4.899
  56.100	        28	    1200	     5.292
  56.120	        27	    1200	     5.196
  56.140	        27	    1200	     5.196
  56.160	        39	    1200	     6.245
  56.180	        33	    1200	     5.745
  56.200	        26	    1200	     5.099
  56.220	        24	    1200	     4.899
  56.240	        26	    1200	     5.099
  56.260	        31	    1200	     5.568
  56.280	        35	    1200	     5.916
  56.300	        33	    1200	     5.745
  56.320	        50	    1200	     7.071
  56.340	        50	    1200	     7.071
  56.360	        50	    1200	     7.071
  56.380	        51	    1200	     7.141
  56.400	        75	    1200	     8.660
  56.420	        79	    1200	     8.888
  56.440	        73	    1200	     8.544
  56.460	        88	    1200	     9.381
  56.480	        72	    1200	     8.485
  56.500	        72	    1200	     8.485
  56.520	        83	    1200	     9.110
  56.540	        64	    1200	     8.000
  56.560	        75	    1200	     8.660
  56.580	        71	    1200	     8.426
  56.600	        77	    1200	     8.775
  56.620	        85	    1200	     9.220
  56.640	        83	    1200	     9.110
  56.660	        77	    1200	     8.775
  56.680	        74	    1200	     8.602
  56.700	        67	    1200	     8.185
  56.720	        77	    1200	     8.775
  56.740	        74	    1200	     8.602
  56.760	        72	    1200	     8.485
  56.780	        67	    1200	     8.185
  56.800	        75	    1200	     8.660
  56.820	        74	    1200	     8.602
  56.840	        87	    1200	     9.327
  56.860	        88	    1200	     9.381
  56.880	        87	    1200	     9.327
  56.900	        80	    1200	     8.944
  56.920	       108	    1200	    10.392
  56.940	        85	    1200	     9.220
  56.960	       106	    1200	    10.296
  56.980	       117	    1200	    10.817
  57.000	       112	    1200	    10.583
  57.020	       112	    1200	    10.583
  57.040	       135	    1200	    11.619
  57.060	       145	    1200	    12.042
  57.080	       169	    1200	    13.000
  57.100	       194	    1200	    13.928
  57.120	       183	    1200	    13.528
  57.140	       187	    1200	    13.675
  57.160	       223	    1200	    14.933
  57.180	       267	    1200	    16.340
  57.200	       260	    1200	    16.125
  57.220	       264	    1200	    16.248
  57.240	       282	    1200	    16.793
  57.260	       319	    1200	    17.861
  57.280	       339	    1200	    18.412
  57.300	       369	    1200	    19.209
  57.320	       396	    1200	    19.900
  57.340	       440	    1200	    20.976
  57.360	       444	    1200	    21.071
  57.380	       458	    1200	    21.401
  57.400	       467	    1200	    21.610
  57.420	       481	    1200	    21.932
  57.440	       488	    1200	    22.091
  57.460	       438	    1200	    20.928
  57.480	       473	    1200	    21.749
  57.500	       485	    1200	    22.023
  57.520	       438	    1200	    20.928
  57.540	       451	    1200	    21.237
  57.560	       408	    1200	    20.199
  57.580	       405	    1200	    20.125
  57.600	       366	    1200	    19.131
  57.620	       357	    1200	    18.894
  57.640	       262	    1200	    16.186
  57.660	       266	    1200	    16.310
  57.680	       271	    1200	    16.462
  57.700	       251	    1200	    15.843
  57.720	       213	    1200	    14.595
  57.740	       183	    1200	    13.528
  57.760	       184	    1200	    13.565
  57.780	       126	    1200	    11.225
  57.800	       159	    1200	    12.610
  57.820	       120	    1200	    10.954
  57.840	       116	    1200	    10.770
  57.860	       109	    1200	    10.440
  57.880	        88	    1200	     9.381
  57.900	        84	    1200	     9.165
  57.920	        79	    1200	     8.888
  57.940	        70	    1200	     8.367
  57.960	        80	    1200	     8.944
  57.980	        69	    1200	     8.307
  58.000	        63	    1200	     7.937
  58.020	        72	    1200	     8.485
  58.040	        53	    1200	     7.280
  58.060	        54	    1200	     7.348
  58.080	        65	    1200	     8.062
  58.100	        50	    1200	     7.071
  58.120	        41	    1200	     6.403
  58.140	        45	    1200	     6.708
  58.160	        35	    1200	     5.916
  58.180	        46	    1200	     6.782
  58.200	        45	    1200	     6.708
  58.220	        39	    1200	     6.245
  58.240	        27	    1200	     5.196
  58.260	        38	    1200	     6.164
  58.280	        32	    1200	     5.657
  58.300	        40	    1200	     6.325
  58.320	        33	    1200	     5.745
  58.340	        38	    1200	     6.164
  58.360	        38	    1200	     6.164
  58.380	        43	    1200	     6.557
  58.400	        42	    1200	     6.481
  58.420	        34	    1200	     5.831
  58.440	        42	    1200	     6.481
  58.460	        43	    1200	     6.557
  58.480	        36	    1200	     6.000
  58.500	        30	    1200	     5.477
  58.520	        28	    1200	     5.292
  58.540	        30	    1200	     5.477
  58.560	        32	    1200	     5.657
  58.580	        28	    1200	     5.292
  58.600	        32	    1200	     5.657
  58.620	        33	    1200	     5.745
  58.640	        34	    1200	     5.831
  58.660	        30	    1200	     5.477
  58.680	        22	    1200	     4.690
  58.700	        17	    1200	     4.123
  58.720	        36	    1200	     6.000
  58.740	        29	    1200	     5.385
  58.760	        31	    1200	     5.568
  58.780	        41	    1200	     6.403
  58.800	        27	    1200	     5.196
  58.820	        32	    1200	     5.657
  58.840	        27	    1200	     5.196
  58.860	        26	    1200	     5.099
  58.880	        24	    1200	     4.899
  58.900	        21	    1200	     4.583
  58.920	        17	    1200	     4.123
  58.940	        25	    1200	     5.000
  58.960	        17	    1200	     4.123
  58.980	        24	    1200	     4.899
  59.000	        31	    1200	     5.568
  59.020	        33	    1200	     5.745
  59.040	        34	    1200	     5.831
  59.060	        32	    1200	     5.657
  59.080	        29	    1200	     5.385
  59.100	        30	    1200	     5.477
  59.120	        25	    1200	     5.000
  59.140	        23	    1200	     4.796
  59.160	        27	    1200	     5.196
  59.180	        21	    1200	     4.583
  59.200	        25	    1200	     5.000
  59.220	        30	    1200	     5.477
  59.240	        28	    1200	     5.292
  59.260	        33	    1200	     5.745
  59.280	        32	    1200	     5.657
  59.300	        22	    1200	     4.690
  59.320	        35	    1200	     5.916
  59.340	        25	    1200	     5.000
  59.360	        28	    1200	     5.292
  59.380	        26	    1200	     5.099
  59.400	        26	    1200	     5.099
  59.420	        18	    1200	     4.243
  59.440	        25	    1200	     5.000
  59.460	        21	    1200	     4.583
  59.480	        27	    1200	     5.196
  59.500	        26	    1200	     5.099
  59.520	        23	    1200	     4.796
  59.540	        23	    1200	     4.796
  59.560	        15	    1200	     3.873
  59.580	        18	    1200	     4.243
  59.600	        25	    1200	     5.000
  59.620	        29	    1200	     5.385
  59.640	        27	    1200	     5.196
  59.660	        24	    1200	     4.899
  59.680	        26	    1200	     5.099
  59.700	        26	    1200	     5.099
  59.720	        23	    1200	     4.796
  59.740	        33	    1200	     5.745
  59.760	        19	    1200	     4.359
  59.780	        19	    1200	     4.359
  59.800	        25	    1200	     5.000
  59.820	        18	    1200	     4.243
  59.840	        26	    1200	     5.099
  59.860	        23	    1200	     4.796
  59.880	        24	    1200	     4.899
  59.900	        23	    1200	     4.796
  59.920	        17	    1200	     4.123
  59.940	        27	    1200	     5.196
  59.960	        27	    1200	     5.196
  59.980	        25	    1200	     5.000
  60.000	        14	    1200	     3.742
  60.020	        21	    1200	     4.583
  60.040	        21	    1200	     4.583
  60.060	        19	    1200	     4.359
  60.080	        21	    1200	     4.583
  60.100	        18	    1200	     4.243
  60.120	        12	    1200	     3.464
  60.140	        25	    1200	     5.000
  60.160	        23	    1200	     4.796
  60.180	        17	    1200	     4.123
  60.200	        21	    1200	     4.583
  60.220	        21	    1200	     4.583
  60.240	        25	    1200	     5.000
  60.260	        18	    1200	     4.243
  60.280	        26	    1200	     5.099
  60.300	        21	    1200	     4.583
  60.320	        24	    1200	     4.899
  60.340	        24	    1200	     4.899
  60.360	        20	    1200	     4.472
  60.380	        31	    1200	     5.568
  60.400	        18	    1200	     4.243
  60.420	        16	    1200	     4.000
  60.440	        21	    1200	     4.583
  60.460	        19	    1200	     4.359
  60.480	        20	    1200	     4.472
  60.500	        19	    1200	     4.359
  60.520	        16	    1200	     4.000
  60.540	        15	    1200	     3.873
  60.560	        19	    1200	     4.359
  60.580	        26	    1200	     5.099
  60.600	        18	    1200	     4.243
  60.620	        20	    1200	     4.472
  60.640	        16	    1200	     4.000
  60.660	        23	    1200	     4.796
  60.680	        16	    1200	     4.000
  60.700	        12	    1200	     3.464
  60.720	        19	    1200	     4.359
  60.740	        19	    1200	     4.359
  60.760	        22	    1200	     4.690
  60.780	        17	    1200	     4.123
  60.800	        14	    1200	     3.742
  60.820	        16	    1200	     4.000
  60.840	        11	    1200	     3.317
  60.860	        15	    1200	     3.873
  60.880	        17	    1200	     4.123
  60.900	        28	    1200	     5.292
  60.920	        18	    1200	     4.243
  60.940	        20	    1200	     4.472
  60.960	        21	    1200	     4.583
  60.980	        20	    1200	     4.472
  61.000	        20	    1200	     4.472
  61.020	        15	    1200	     3.873
  61.040	        22	    1200	     4.690
  61.060	        14	    1200	     3.742
  61.080	        23	    1200	     4.796
  61.100	        13	    1200	     3.606
  61.120	        16	    1200	     4.000
  61.140	        28	    1200	     5.292
  61.160	        17	    1200	     4.123
  61.180	        13	    1200	     3.606
  61.200	        15	    1200	     3.873
  61.220	        18	    1200	     4.243
  61.240	        20	    1200	     4.472
  61.260	        21	    1200	     4.583
  61.280	        16	    1200	     4.000
  61.300	        12	    1200	     3.464
  61.320	        17	    1200	     4.123
  61.340	        23	    1200	     4.796
  61.360	        18	    1200	     4.243
  61.380	        20	    1200	     4.472
  61.400	        18	    1200	     4.243
  61.420	        20	    1200	     4.472
  61.440	        14	    1200	     3.742
  61.460	        17	    1200	     4.123
  61.480	        14	    1200	     3.742
  61.500	        13	    1200	     3.606
  61.520	        15	    1200	     3.873
  61.540	        17	    1200	     4.123
  61.560	        16	    1200	     4.000
  61.580	        18	    1200	     4.243
  61.600	        17	    1200	     4.123
  61.620	        30	    1200	     5.477
  61.640	        12	    1200	     3.464
  61.660	        14	    1200	     3.742
  61.680	        26	    1200	     5.099
  61.700	        11	    1200	     3.317
  61.720	        19	    1200	     4.359
  61.740	        23	    1200	     4.796
  61.760	        13	    1200	     3.606
  61.780	        16	    1200	     4.000
  61.800	        20	    1200	     4.472
  61.820	        27	    1200	     5.196
  61.840	        22	    1200	     4.690
  61.860	        21	    1200	     4.583
  61.880	        23	    1200	     4.796
  61.900	        28	    1200	     5.292
  61.920	        24	    1200	     4.899
  61.940	        13	    1200	     3.606
  61.960	        23	    1200	     4.796
  61.980	        16	    1200	     4.000
  62.000	        22	    1200	     4.690
  62.020	        21	    1200	     4.583
  62.040	        17	    1200	     4.123
  62.060	        21	    1200	     4.583
  62.080	        21	    1200	     4.583
  62.100	        27	    1200	     5.196
  62.120	        19	    1200	     4.359
  62.140	        19	    1200	     4.359
  62.160	        15	    1200	     3.873
  62.180	        15	    1200	     3.873
  62.200	        23	    1200	     4.796
  62.220	        22	    1200	     4.690
  62.240	        20	    1200	     4.472
  62.260	        22	    1200	     4.690
  62.280	        19	    1200	     4.359
  62.300	        23	    1200	     4.796
  62.320	        20	    1200	     4.472
  62.340	        11	    1200	     3.317
  62.360	        16	    1200	     4.000
  62.380	        13	    1200	     3.606
  62.400	        17	    1200	     4.123
  62.420	        22	    1200	     4.690
  62.440	        17	    1200	     4.123
  62.460	        13	    1200	     3.606
  62.480	        16	    1200	     4.000
  62.500	        19	    1200	     4.359
  62.520	        21	    1200	     4.583
  62.540	        21	    1200	     4.583
  62.560	        22	    1200	     4.690
  62.580	        23	    1200	     4.796
  62.600	        20	    1200	     4.472
  62.620	        18	    1200	     4.243
  62.640	        20	    1200	     4.472
  62.660	        20	    1200	     4.472
  62.680	        30	    1200	     5.477
  62.700	        19	    1200	     4.359
  62.720	        20	    1200	     4.472
  62.740	        20	    1200	     4.472
  62.760	        30	    1200	     5.477
  62.780	        33	    1200	     5.745
  62.800	        21	    1200	     4.583
  62.820	        25	    1200	     5.000
  62.840	        29	    1200	     5.385
  62.860	        36	    1200	     6.000
  62.880	        20	    1200	     4.472
  62.900	        24	    1200	     4.899
  62.920	        25	    1200	     5.000
  62.940	        30	    1200	     5.477
  62.960	        26	    1200	     5.099
  62.980	        30	    1200	     5.477
  63.000	        23	    1200	     4.796
  63.020	        40	    1200	     6.325
  63.040	        22	    1200	     4.690
  63.060	        29	    1200	     5.385
  63.080	        31	    1200	     5.568
  63.100	        23	    1200	     4.796
  63.120	        27	    1200	     5.196
  63.140	        27	    1200	     5.196
  63.160	        21	    1200	     4.583
  63.180	        21	    1200	     4.583
  63.200	        30	    1200	     5.477
  63.220	        37	    1200	     6.083
  63.240	        23	    1200	     4.796
  63.260	        33	    1200	     5.745
  63.280	        25	    1200	     5.000
  63.300	        23	    1200	     4.796
  63.320	        28	    1200	     5.292
  63.340	        29	    1200	     5.385
  63.360	        18	    1200	     4.243
  63.380	        21	    1200	     4.583
  63.400	        25	    1200	     5.000
  63.420	        30	    1200	     5.477
  63.440	        28	    1200	     5.292
  63.460	        32	    1200	     5.657
  63.480	        27	    1200	     5.196
  63.500	        17	    1200	     4.123
  63.520	        23	    1200	     4.796
  63.540	        39	    1200	     6.245
  63.560	        31	    1200	     5.568
  63.580	        32	    1200	     5.657
  63.600	        35	    1200	     5.916
  63.620	        43	    1200	     6.557
  63.640	        49	    1200	     7.000
  63.660	        36	    1200	     6.000
  63.680	        35	    1200	     5.916
  63.700	        46	    1200	     6.782
  63.720	        44	    1200	     6.633
  63.740	        47	    1200	     6.856
  63.760	        50	    1200	     7.071
  63.780	        44	    1200	     6.633
  63.800	        47	    1200	     6.856
  63.820	        54	    1200	     7.348
  63.840	        53	    1200	     7.280
  63.860	        54	    1200	     7.348
  63.880	        45	    1200	     6.708
  63.900	        56	    1200	     7.483
  63.920	        42	    1200	     6.481
  63.940	        43	    1200	     6.557
  63.960	        35	    1200	     5.916
  63.980	        31	    1200	     5.568
  64.000	        44	    1200	     6.633
  64.020	        47	    1200	     6.856
  64.040	        45	    1200	     6.708
  64.060	        34	    1200	     5.831
  64.080	        30	    1200	     5.477
  64.100	        40	    1200	     6.325
  64.120	        40	    1200	     6.325
  64.140	        28	    1200	     5.292
  64.160	        39	    1200	     6.245
  64.180	        24	    1200	     4.899
  64.200	        21	    1200	     4.583
  64.220	        29	    1200	     5.385
  64.240	        16	    1200	     4.000
  64.260	        18	    1200	     4.243
  64.280	        31	    1200	     5.568
  64.300	        24	    1200	     4.899
  64.320	        19	    1200	     4.359
  64.340	        12	    1200	     3.464
  64.360	        27	    1200	     5.196
  64.380	        12	    1200	     3.464
  64.400	        23	    1200	     4.796
  64.420	        25	    1200	     5.000
  64.440	        14	    1200	     3.742
  64.460	        15	    1200	     3.873
  64.480	        14	    1200	     3.742
  64.500	        19	    1200	     4.359
  64.520	        28	    1200	     5.292
  64.540	        25	    1200	     5.000
  64.560	        20	    1200	     4.472
  64.580	        18	    1200	     4.243
  64.600	        30	    1200	     5.477
  64.620	        29	    1200	     5.385
  64.640	        26	    1200	     5.099
  64.660	        18	    1200	     4.243
  64.680	        24	    1200	     4.899
  64.700	        25	    1200	     5.000
  64.720	        25	    1200	     5.000
  64.740	        30	    1200	     5.477
  64.760	        22	    1200	     4.690
  64.780	        17	    1200	     4.123
  64.800	        24	    1200	     4.899
  64.820	        21	    1200	     4.583
  64.840	        20	    1200	     4.472
  64.860	        27	    1200	     5.196
  64.880	        27	    1200	     5.196
  64.900	        32	    1200	     5.657
  64.920	        23	    1200	     4.796
  64.940	        19	    1200	     4.359
  64.960	        15	    1200	     3.873
  64.980	        35	    1200	     5.916
  65.000	        26	    1200	     5.099
  65.020	        24	    1200	     4.899
  65.040	        19	    1200	     4.359
  65.060	        21	    1200	     4.583
  65.080	        22	    1200	     4.690
  65.100	        24	    1200	     4.899
  65.120	        24	    1200	     4.899
  65.140	        24	    1200	     4.899
  65.160	        18	    1200	     4.243
  65.180	        21	    1200	     4.583
  65.200	        19	    1200	     4.359
  65.220	        24	    1200	     4.899
  65.240	        21	    1200	     4.583
  65.260	        27	    1200	     5.196
  65.280	        21	    1200	     4.583
  65.300	        25	    1200	     5.000
  65.320	        29	    1200	     5.385
  65.340	        22	    1200	     4.690
  65.360	        16	    1200	     4.000
  65.380	        20	    1200	     4.472
  65.400	        15	    1200	     3.873
  65.420	        23	    1200	     4.796
  65.440	        22	    1200	     4.690
  65.460	        28	    1200	     5.292
  65.480	        16	    1200	     4.000
  65.500	        25	    1200	     5.000
  65.520	        26	    1200	     5.099
  65.540	        25	    1200	     5.000
  65.560	        20	    1200	     4.472
  65.580	        33	    1200	     5.745
  65.600	        34	    1200	     5.831
  65.620	        32	    1200	     5.657
  65.640	        47	    1200	     6.856
  65.660	        25	    1200	     5.000
  65.680	        44	    1200	     6.633
  65.700	        39	    1200	     6.245
  65.720	        33	    1200	     5.745
  65.740	        29	    1200	     5.385
  65.760	        45	    1200	     6.708
  65.780	        30	    1200	     5.477
  65.800	        45	    1200	     6.708
  65.820	        39	    1200	     6.245
  65.840	        40	    1200	     6.325
  65.860	        41	    1200	     6.403
  65.880	        38	    1200	     6.164
  65.900	        41	    1200	     6.403
  65.920	        29	    1200	     5.385
  65.940	        50	    1200	     7.071
  65.960	        42	    1200	     6.481
  65.980	        42	    1200	     6.481
  66.000	        33	    1200	     5.745
  66.020	        35	    1200	     5.916
  66.040	        42	    1200	     6.481
  66.060	        40	    1200	     6.325
  66.080	        18	    1200	     4.243
  66.100	        25	    1200	     5.000
  66.120	        23	    1200	     4.796
  66.140	        31	    1200	     5.568
  66.160	        28	    1200	     5.292
  66.180	        34	    1200	     5.831
  66.200	        25	    1200	     5.000
  66.220	        25	    1200	     5.000
  66.240	        25	    1200	     5.000
  66.260	        31	    1200	     5.568
  66.280	        25	    1200	     5.000
  66.300	        35	    1200	     5.916
  66.320	        34	    1200	     5.831
  66.340	        34	    1200	     5.831
  66.360	        27	    1200	     5.196
  66.380	        21	    1200	     4.583
  66.400	        26	    1200	     5.099
  66.420	        30	    1200	     5.477
  66.440	        24	    1200	     4.899
  66.460	        25	    1200	     5.000
  66.480	        27	    1200	     5.196
  66.500	        22	    1200	     4.690
  66.520	        25	    1200	     5.000
  66.540	        23	    1200	     4.796
  66.560	        20	    1200	     4.472
  66.580	        30	    1200	     5.477
  66.600	        27	    1200	     5.196
  66.620	        28	    1200	     5.292
  66.640	        33	    1200	     5.745
  66.660	        28	    1200	     5.292
  66.680	        42	    1200	     6.481
  66.700	        41	    1200	     6.403
  66.720	        23	    1200	     4.796
  66.740	        32	    1200	     5.657
  66.760	        34	    1200	     5.831
  66.780	        34	    1200	     5.831
  66.800	        50	    1200	     7.071
  66.820	        30	    1200	     5.477
  66.840	        42	    1200	     6.481
  66.860	        37	    1200	     6.083
  66.880	        54	    1200	     7.348
  66.900	        45	    1200	     6.708
  66.920	        60	    1200	     7.746
  66.940	        60	    1200	     7.746
  66.960	        68	    1200	     8.246
  66.980	        71	    1200	     8.426
  67.000	        71	    1200	     8.426
  67.020	        96	    1200	     9.798
  67.040	        95	    1200	     9.747
  67.060	        89	    1200	     9.434
  67.080	        84	    1200	     9.165
  67.100	        90	    1200	     9.487
  67.120	        97	    1200	     9.849
  67.140	        98	    1200	     9.899
  67.160	       111	    1200	    10.536
  67.180	       114	    1200	    10.677
  67.200	       119	    1200	    10.909
  67.220	       126	    1200	    11.225
  67.240	       120	    1200	    10.954
  67.260	       142	    1200	    11.916
  67.280	       133	    1200	    11.533
  67.300	       143	    1200	    11.958
  67.320	       143	    1200	    11.958
  67.340	       171	    1200	    13.077
  67.360	       153	    1200	    12.369
  67.380	       198	    1200	    14.071
  67.400	       169	    1200	    13.000
  67.420	       192	    1200	    13.856
  67.440	       169	    1200	    13.000
  67.460	       202	    1200	    14.213
  67.480	       183	    1200	    13.528
  67.500	       208	    1200	    14.422
  67.520	       200	    1200	    14.142
  67.540	       184	    1200	    13.565
  67.560	       197	    1200	    14.036
  67.580	       219	    1200	    14.799
  67.600	       189	    1200	    13.748
  67.620	       176	    1200	    13.266
  67.640	       174	    1200	    13.191
  67.660	       171	    1200	    13.077
  67.680	       165	    1200	    12.845
  67.700	       157	    1200	    12.530
  67.720	       154	    1200	    12.410
  67.740	       133	    1200	    11.533
  67.760	       143	    1200	    11.958
  67.780	       140	    1200	    11.832
  67.800	       118	    1200	    10.863
  67.820	       123	    1200	    11.091
  67.840	       102	    1200	    10.100
  67.860	        92	    1200	     9.592
  67.880	       104	    1200	    10.198
  67.900	        85	    1200	     9.220
  67.920	        92	    1200	     9.592
  67.940	        73	    1200	     8.544
  67.960	        96	    1200	     9.798
  67.980	        78	    1200	     8.832
  68.000	        56	    1200	     7.483
  68.020	        70	    1200	     8.367
  68.040	        61	    1200	     7.810
  68.060	        51	    1200	     7.141
  68.080	        51	    1200	     7.141
  68.100	        47	    1200	     6.856
  68.120	        47	    1200	     6.856
  68.140	        42	    1200	     6.481
  68.160	        41	    1200	     6.403
  68.180	        44	    1200	     6.633
  68.200	        35	    1200	     5.916
  68.220	        37	    1200	     6.083
  68.240	        39	    1200	     6.245
  68.260	        35	    1200	     5.916
  68.280	        38	    1200	     6.164
  68.300	        32	    1200	     5.657
  68.320	        22	    1200	     4.690
  68.340	        35	    1200	     5.916
  68.360	        33	    1200	     5.745
  68.380	        30	    1200	     5.477
  68.400	        23	    1200	     4.796
  68.420	        37	    1200	     6.083
  68.440	        34	    1200	     5.831
  68.460	        25	    1200	     5.000
  68.480	        38	    1200	     6.164
  68.500	        28	    1200	     5.292
  68.520	        32	    1200	     5.657
  68.540	        27	    1200	     5.196
  68.560	        23	    1200	     4.796
  68.580	        27	    1200	     5.196
  68.600	        33	    1200	     5.745
  68.620	        21	    1200	     4.583
  68.640	        21	    1200	     4.583
  68.660	        28	    1200	     5.292
  68.680	        24	    1200	     4.899
  68.700	        30	    1200	     5.477
  68.720	        32	    1200	     5.657
  68.740	        21	    1200	     4.583
  68.760	        25	    1200	     5.000
  68.780	        38	    1200	     6.164
  68.800	        24	    1200	     4.899
  68.820	        24	    1200	     4.899
  68.840	        19	    1200	     4.359
  68.860	        29	    1200	     5.385
  68.880	        24	    1200	     4.899
  68.900	        29	    1200	     5.385
  68.920	        22	    1200	     4.690
  68.940	        26	    1200	     5.099
  68.960	        20	    1200	     4.472
  68.980	        27	    1200	     5.196
  69.000	        20	    1200	     4.472
  69.020	        16	    1200	     4.000
  69.040	        16	    1200	     4.000
  69.060	        21	    1200	     4.583
  69.080	        23	    1200	     4.796
  69.100	        15	    1200	     3.873
  69.120	        28	    1200	     5.292
  69.140	        25	    1200	     5.000
  69.160	        22	    1200	     4.690
  69.180	        14	    1200	     3.742
  69.200	        18	    1200	     4.243
  69.220	        20	    1200	     4.472
  69.240	        27	    1200	     5.196
  69.260	        18	    1200	     4.243
  69.280	        21	    1200	     4.583
  69.300	        22	    1200	     4.690
  69.320	        20	    1200	     4.472
  69.340	        10	    1200	     3.162
  69.360	        22	    1200	     4.690
  69.380	        22	    1200	     4.690
  69.400	        19	    1200	     4.359
  69.420	        18	    1200	     4.243
  69.440	        11	    1200	     3.317
  69.460	        14	    1200	     3.742
  69.480	        17	    1200	     4.123
  69.500	        17	    1200	     4.123
  69.520	        19	    1200	     4.359
  69.540	        23	    1200	     4.796
  69.560	        19	    1200	     4.359
  69.580	        16	    1200	     4.000
  69.600	        11	    1200	     3.317
  69.620	        17	    1200	     4.123
  69.640	        13	    1200	     3.606
  69.660	        10	    1200	     3.162
  69.680	        20	    1200	     4.472
  69.700	         9	    1200	     3.000
  69.720	        22	    1200	     4.690
  69.740	        18	    1200	     4.243
  69.760	        15	    1200	     3.873
  69.780	        18	    1200	     4.243
  69.800	        10	    1200	     3.162
  69.820	        15	    1200	     3.873
  69.840	        16	    1200	     4.000
  69.860	        18	    1200	     4.243
  69.880	        18	    1200	     4.243
  69.900	        22	    1200	     4.690
  69.920	        14	    1200	     3.742
  69.940	        12	    1200	     3.464
  69.960	        11	    1200	     3.317
  69.980	         9	    1200	     3.000
  70.000	        17	    1200	     4.123
  70.020	        18	    1200	     4.243
  70.040	        10	    1200	     3.162
  70.060	        14	    1200	     3.742
  70.080	        16	    1200	     4.000
  70.100	        16	    1200	     4.000
  70.120	        14	    1200	     3.742
  70.140	        20	    1200	     4.472
  70.160	        10	    1200	     3.162
  70.180	        21	    1200	     4.583
  70.200	        15	    1200	     3.873
  70.220	        17	    1200	     4.123
  70.240	        15	    1200	     3.873
  70.260	        13	    1200	     3.606
  70.280	         8	    1200	     2.828
  70.300	        22	    1200	     4.690
  70.320	        20	    1200	     4.472
  70.340	        19	    1200	     4.359
  70.360	         9	    1200	     3.000
  70.380	        23	    1200	     4.796
  70.400	        11	    1200	     3.317
  70.420	        20	    1200	     4.472
  70.440	        10	    1200	     3.162
  70.460	        20	    1200	     4.472
  70.480	        11	    1200	     3.317
  70.500	        13	    1200	     3.606
  70.520	        11	    1200	     3.317
  70.540	        16	    1200	     4.000
  70.560	        19	    1200	     4.359
  70.580	        18	    1200	     4.243
  70.600	        15	    1200	     3.873
  70.620	        11	    1200	     3.317
  70.640	        16	    1200	     4.000
  70.660	        20	    1200	     4.472
  70.680	        14	    1200	     3.742
  70.700	        18	    1200	     4.243
  70.720	        17	    1200	     4.123
  70.740	        15	    1200	     3.873
  70.760	        11	    1200	     3.317
  70.780	        13	    1200	     3.606
  70.800	        17	    1200	     4.123
  70.820	        15	    1200	     3.873
  70.840	        17	    1200	     4.123
  70.860	        14	    1200	     3.742
  70.880	        18	    1200	     4.243
  70.900	        16	    1200	     4.000
  70.920	        10	    1200	     3.162
  70.940	        28	    1200	     5.292
  70.960	        14	    1200	     3.742
  70.980	        16	    1200	     4.000
  71.000	        24	    1200	     4.899
  71.020	        23	    1200	     4.796
  71.040	        13	    1200	     3.606
  71.060	        21	    1200	     4.583
  71.080	        16	    1200	     4.000
  71.100	        13	    1200	     3.606
  71.120	        20	    1200	     4.472
  71.140	         9	    1200	     3.000
  71.160	        13	    1200	     3.606
  71.180	        14	    1200	     3.742
  71.200	        19	    1200	     4.359
  71.220	        10	    1200	     3.162
  71.240	        19	    1200	     4.359
  71.260	        19	    1200	     4.359
  71.280	        16	    1200	     4.000
  71.300	        17	    1200	     4.123
  71.320	        20	    1200	     4.472
  71.340	        10	    1200	     3.162
  71.360	        17	    1200	     4.123
  71.380	        22	    1200	     4.690
  71.400	        27	    1200	     5.196
  71.420	        17	    1200	     4.123
  71.440	        13	    1200	     3.606
  71.460	        15	    1200	     3.873
  71.480	        14	    1200	     3.742
  71.500	        14	    1200	     3.742
  71.520	         9	    1200	     3.000
  71.540	        15	    1200	     3.873
  71.560	        18	    1200	     4.243
  71.580	        23	    1200	     4.796
  71.600	        20	    1200	     4.472
  71.620	        23	    1200	     4.796
  71.640	        20	    1200	     4.472
  71.660	        19	    1200	     4.359
  71.680	         9	    1200	     3.000
  71.700	        14	    1200	     3.742
  71.720	        18	    1200	     4.243
  71.740	        14	    1200	     3.742
  71.760	        17	    1200	     4.123
  71.780	        14	    1200	     3.742
  71.800	        17	    1200	     4.123
  71.820	        21	    1200	     4.583
  71.840	        19	    1200	     4.359
  71.860	        18	    1200	     4.243
  71.880	        20	    1200	     4.472
  71.900	        17	    1200	     4.123
  71.920	        19	    1200	     4.359
  71.940	        15	    1200	     3.873
  71.960	        19	    1200	     4.359
  71.980	        22	    1200	     4.690
  72.000	        19	    1200	     4.359
  72.020	        22	    1200	     4.690
  72.040	         9	    1200	     3.000
  72.060	        21	    1200	     4.583
  72.080	        19	    1200	     4.359
  72.100	        23	    1200	     4.796
  72.120	        22	    1200	     4.690
  72.140	        21	    1200	     4.583
  72.160	        24	    1200	     4.899
  72.180	        24	    1200	     4.899
  72.200	        23	    1200	     4.796
  72.220	        21	    1200	     4.583
  72.240	        21	    1200	     4.583
  72.260	        19	    1200	     4.359
  72.280	        32	    1200	     5.657
  72.300	        20	    1200	     4.472
  72.320	        23	    1200	     4.796
  72.340	        26	    1200	     5.099
  72.360	        33	    1200	     5.745
  72.380	        24	    1200	     4.899
  72.400	        27	    1200	     5.196
  72.420	        16	    1200	     4.000
  72.440	        17	    1200	     4.123
  72.460	        22	    1200	     4.690
  72.480	        21	    1200	     4.583
  72.500	        30	    1200	     5.477
  72.520	        18	    1200	     4.243
  72.540	        28	    1200	     5.292
  72.560	        17	    1200	     4.123
  72.580	        24	    1200	     4.899
  72.600	        22	    1200	     4.690
  72.620	        17	    1200	     4.123
  72.640	        19	    1200	     4.359
  72.660	        15	    1200	     3.873
  72.680	        11	    1200	     3.317
  72.700	        17	    1200	     4.123
  72.720	        34	    1200	     5.831
  72.740	        16	    1200	     4.000
  72.760	        21	    1200	     4.583
  72.780	        19	    1200	     4.359
  72.800	        11	    1200	     3.317
  72.820	        27	    1200	     5.196
  72.840	        18	    1200	     4.243
  72.860	        31	    1200	     5.568
  72.880	        18	    1200	     4.243
  72.900	        16	    1200	     4.000
  72.920	        24	    1200	     4.899
  72.940	        19	    1200	     4.359
  72.960	        19	    1200	     4.359
  72.980	        27	    1200	     5.196
  73.000	        18	    1200	     4.243
  73.020	        20	    1200	     4.472
  73.040	        20	    1200	     4.472
  73.060	        18	    1200	     4.243
  73.080	        18	    1200	     4.243
  73.100	        24	    1200	     4.899
  73.120	        20	    1200	     4.472
  73.140	        15	    1200	     3.873
  73.160	        24	    1200	     4.899
  73.180	        27	    1200	     5.196
  73.200	        26	    1200	     5.099
  73.220	        18	    1200	     4.243
  73.240	        21	    1200	     4.583
  73.260	        21	    1200	     4.583
  73.280	        22	    1200	     4.690
  73.300	        18	    1200	     4.243
  73.320	        23	    1200	     4.796
  73.340	        17	    1200	     4.123
  73.360	        16	    1200	     4.000
  73.380	        11	    1200	     3.317
  73.400	        18	    1200	     4.243
  73.420	        16	    1200	     4.000
  73.440	        14	    1200	     3.742
  73.460	        26	    1200	     5.099
  73.480	        15	    1200	     3.873
  73.500	        24	    1200	     4.899
  73.520	        14	    1200	     3.742
  73.540	        16	    1200	     4.000
  73.560	        17	    1200	     4.123
  73.580	        20	    1200	     4.472
  73.600	        21	    1200	     4.583
  73.620	        15	    1200	     3.873
  73.640	        15	    1200	     3.873
  73.660	        16	    1200	     4.000
  73.680	        13	    1200	     3.606
  73.700	        21	    1200	     4.583
  73.720	        15	    1200	     3.873
  73.740	        16	    1200	     4.000
  73.760	        20	    1200	     4.472
  73.780	        17	    1200	     4.123
  73.800	        18	    1200	     4.243
  73.820	         9	    1200	     3.000
  73.840	        13	    1200	     3.606
  73.860	        13	    1200	     3.606
  73.880	        10	    1200	     3.162
  73.900	        10	    1200	     3.162
  73.920	        10	    1200	     3.162
  73.940	        19	    1200	     4.359
  73.960	        14	    1200	     3.742
  73.980	        15	    1200	     3.873
  74.000	        16	    1200	     4.000
  74.020	        13	    1200	     3.606
  74.040	        14	    1200	     3.742
  74.060	        13	    1200	     3.606
  74.080	        15	    1200	     3.873
  74.100	        17	    1200	     4.123
  74.120	        19	    1200	     4.359
  74.140	        19	    1200	     4.359
  74.160	        13	    1200	     3.606
  74.180	        13	    1200	     3.606
  74.200	         9	    1200	     3.000
  74.220	        15	    1200	     3.873
  74.240	        15	    1200	     3.873
  74.260	        15	    1200	     3.873
  74.280	        20	    1200	     4.472
  74.300	        10	    1200	     3.162
  74.320	        19	    1200	     4.359
  74.340	        16	    1200	     4.000
  74.360	        14	    1200	     3.742
  74.380	        20	    1200	     4.472
  74.400	        20	    1200	     4.472
  74.420	        18	    1200	     4.243
  74.440	        14	    1200	     3.742
  74.460	        16	    1200	     4.000
  74.480	        13	    1200	     3.606
  74.500	         8	    1200	     2.828
  74.520	        17	    1200	     4.123
  74.540	        16	    1200	     4.000
  74.560	        26	    1200	     5.099
  74.580	        25	    1200	     5.000
  74.600	        21	    1200	     4.583
  74.620	        10	    1200	     3.162
  74.640	        20	    1200	     4.472
  74.660	        14	    1200	     3.742
  74.680	        10	    1200	     3.162
  74.700	        24	    1200	     4.899
  74.720	        19	    1200	     4.359
  74.740	        13	    1200	     3.606
  74.760	        18	    1200	     4.243
  74.780	        16	    1200	     4.000
  74.800	        15	    1200	     3.873
  74.820	        16	    1200	     4.000
  74.840	        17	    1200	     4.123
  74.860	        17	    1200	     4.123
  74.880	        11	    1200	     3.317
  74.900	        13	    1200	     3.606
  74.920	        14	    1200	     3.742
  74.940	        16	    1200	     4.000
  74.960	        19	    1200	     4.359
  74.980	         9	    1200	     3.000
  75.000	        14	    1200	     3.742
  75.020	        14	    1200	     3.742
  75.040	        19	    1200	     4.359
  75.060	        18	    1200	     4.243
  75.080	        15	    1200	     3.873
  75.100	        17	    1200	     4.123
  75.120	        21	    1200	     4.583
  75.140	        21	    1200	     4.583
  75.160	         8	    1200	     2.828
  75.180	        29	    1200	     5.385
  75.200	        23	    1200	     4.796
  75.220	        22	    1200	     4.690
  75.240	        23	    1200	     4.796
  75.260	        22	    1200	     4.690
  75.280	        17	    1200	     4.123
  75.300	        16	    1200	     4.000
  75.320	        23	    1200	     4.796
  75.340	        33	    1200	     5.745
  75.360	        28	    1200	     5.292
  75.380	        27	    1200	     5.196
  75.400	        20	    1200	     4.472
  75.420	        27	    1200	     5.196
  75.440	        22	    1200	     4.690
  75.460	        22	    1200	     4.690
  75.480	        26	    1200	     5.099
  75.500	        23	    1200	     4.796
  75.520	        33	    1200	     5.745
  75.540	        20	    1200	     4.472
  75.560	        23	    1200	     4.796
  75.580	        24	    1200	     4.899
  75.600	        23	    1200	     4.796
  75.620	        28	    1200	     5.292
  75.640	        28	    1200	     5.292
  75.660	        19	    1200	     4.359
  75.680	        18	    1200	     4.243
  75.700	        26	    1200	     5.099
  75.720	        26	    1200	     5.099
  75.740	        28	    1200	     5.292
  75.760	        23	    1200	     4.796
  75.780	        31	    1200	     5.568
  75.800	        22	    1200	     4.690
  75.820	        29	    1200	     5.385
  75.840	        42	    1200	     6.481
  75.860	        25	    1200	     5.000
  75.880	        33	    1200	     5.745
  75.900	        33	    1200	     5.745
  75.920	        38	    1200	     6.164
  75.940	        48	    1200	     6.928
  75.960	        33	    1200	     5.745
  75.980	        36	    1200	     6.000
  76.000	        40	    1200	     6.325
  76.020	        39	    1200	     6.245
  76.040	        54	    1200	     7.348
  76.060	        40	    1200	     6.325
  76.080	        36	    1200	     6.000
  76.100	        52	    1200	     7.211
  76.120	        39	    1200	     6.245
  76.140	        32	    1200	     5.657
  76.160	        38	    1200	     6.164
  76.180	        47	    1200	     6.856
  76.200	        41	    1200	     6.403
  76.220	        47	    1200	     6.856
  76.240	        50	    1200	     7.071
  76.260	        55	    1200	     7.416
  76.280	        57	    1200	     7.550
  76.300	        48	    1200	     6.928
  76.320	        50	    1200	     7.071
  76.340	        57	    1200	     7.550
  76.360	        58	    1200	     7.616
  76.380	        61	    1200	     7.810
  76.400	        76	    1200	     8.718
  76.420	        65	    1200	     8.062
  76.440	        72	    1200	     8.485
  76.460	        75	    1200	     8.660
  76.480	        66	    1200	     8.124
  76.500	        80	    1200	     8.944
  76.520	        78	    1200	     8.832
  76.540	       103	    1200	    10.149
  76.560	       109	    1200	    10.440
  76.580	       102	    1200	    10.100
  76.600	       100	    1200	    10.000
  76.620	        96	    1200	     9.798
  76.640	       109	    1200	    10.440
  76.660	       141	    1200	    11.874
  76.680	        98	    1200	     9.899
  76.700	       109	    1200	    10.440
  76.720	       146	    1200	    12.083
  76.740	       153	    1200	    12.369
  76.760	       144	    1200	    12.000
  76.780	       143	    1200	    11.958
  76.800	       133	    1200	    11.533
  76.820	       138	    1200	    11.747
  76.840	       153	    1200	    12.369
  76.860	       130	    1200	    11.402
  76.880	       157	    1200	    12.530
  76.900	       147	    1200	    12.124
  76.920	       128	    1200	    11.314
  76.940	       120	    1200	    10.954
  76.960	       131	    1200	    11.446
  76.980	       139	    1200	    11.790
  77.000	       103	    1200	    10.149
  77.020	       115	    1200	    10.724
  77.040	       123	    1200	    11.091
  77.060	       114	    1200	    10.677
  77.080	        90	    1200	     9.487
  77.100	       108	    1200	    10.392
  77.120	       113	    1200	    10.630
  77.140	        95	    1200	     9.747
  77.160	        83	    1200	     9.110
  77.180	       104	    1200	    10.198
  77.200	        84	    1200	     9.165
  77.220	        66	    1200	     8.124
  77.240	        77	    1200	     8.775
  77.260	        73	    1200	     8.544
  77.280	        60	    1200	     7.746
  77.300	        69	    1200	     8.307
  77.320	        52	    1200	     7.211
  77.340	        74	    1200	     8.602
  77.360	        61	    1200	     7.810
  77.380	        58	    1200	     7.616
  77.400	        69	    1200	     8.307
  77.420	        64	    1200	     8.000
  77.440	        70	    1200	     8.367
  77.460	        68	    1200	     8.246
  77.480	        56	    1200	     7.483
  77.500	        54	    1200	     7.348
  77.520	        50	    1200	     7.071
  77.540	        44	    1200	     6.633
  77.560	        55	    1200	     7.416
  77.580	        46	    1200	     6.782
  77.600	        48	    1200	     6.928
  77.620	        50	    1200	     7.071
  77.640	        51	    1200	     7.141
  77.660	        36	    1200	     6.000
  77.680	        42	    1200	     6.481
  77.700	        37	    1200	     6.083
  77.720	        44	    1200	     6.633
  77.740	        44	    1200	     6.633
  77.760	        32	    1200	     5.657
  77.780	        39	    1200	     6.245
  77.800	        45	    1200	     6.708
  77.820	        38	    1200	     6.164
  77.840	        28	    1200	     5.292
  77.860	        32	    1200	     5.657
  77.880	        25	    1200	     5.000
  77.900	        39	    1200	     6.245
  77.920	        28	    1200	     5.292
  77.940	        24	    1200	     4.899
  77.960	        32	    1200	     5.657
  77.980	        27	    1200	     5.196
  78.000	        32	    1200	     5.657
  78.020	        26	    1200	     5.099
  78.040	        28	    1200	     5.292
  78.060	        24	    1200	     4.899
  78.080	        25	    1200	     5.000
  78.100	        24	    1200	     4.899
  78.120	        21	    1200	     4.583
  78.140	        24	    1200	     4.899
  78.160	        22	    1200	     4.690
  78.180	        23	    1200	     4.796
  78.200	        17	    1200	     4.123
  78.220	        22	    1200	     4.690
  78.240	        18	    1200	     4.243
  78.260	        18	    1200	     4.243
  78.280	        12	    1200	     3.464
  78.300	        24	    1200	     4.899
  78.320	        25	    1200	     5.000
  78.340	        27	    1200	     5.196
  78.360	        30	    1200	     5.477
  78.380	        21	    1200	     4.583
  78.400	        17	    1200	     4.123
  78.420	        20	    1200	     4.472
  78.440	        16	    1200	     4.000
  78.460	        24	    1200	     4.899
  78.480	        30	    1200	     5.477
  78.500	        20	    1200	     4.472
  78.520	        25	    1200	     5.000
  78.540	        37	    1200	     6.083
  78.560	        27	    1200	     5.196
  78.580	        16	    1200	     4.000
  78.600	        19	    1200	     4.359
  78.620	        30	    1200	     5.477
  78.640	        24	    1200	     4.899
  78.660	        22	    1200	     4.690
  78.680	        19	    1200	     4.359
  78.700	        21	    1200	     4.583
  78.720	        18	    1200	     4.243
  78.740	        22	    1200	     4.690
  78.760	        28	    1200	     5.292
  78.780	        20	    1200	     4.472
  78.800	        19	    1200	     4.359
  78.820	        18	    1200	     4.243
  78.840	        23	    1200	     4.796
  78.860	        18	    1200	     4.243
  78.880	        17	    1200	     4.123
  78.900	        14	    1200	     3.742
  78.920	        20	    1200	     4.472
  78.940	        26	    1200	     5.099
  78.960	        15	    1200	     3.873
  78.980	        18	    1200	     4.243
  79.000	        22	    1200	     4.690
  79.020	        12	    1200	     3.464
  79.040	        14	    1200	     3.742
  79.060	        23	    1200	     4.796
  79.080	        20	    1200	     4.472
  79.100	        16	    1200	     4.000
  79.120	        21	    1200	     4.583
  79.140	        18	    1200	     4.243
  79.160	         8	    1200	     2.828
  79.180	        16	    1200	     4.000
  79.200	        22	    1200	     4.690
  79.220	        12	    1200	     3.464
  79.240	        17	    1200	     4.123
  79.260	        18	    1200	     4.243
  79.280	        20	    1200	     4.472
  79.300	        15	    1200	     3.873
  79.320	        19	    1200	     4.359
  79.340	        21	    1200	     4.583
  79.360	        19	    1200	     4.359
  79.380	        29	    1200	     5.385
  79.400	        17	    1200	     4.123
  79.420	        10	    1200	     3.162
  79.440	        20	    1200	     4.472
  79.460	        16	    1200	     4.000
  79.480	        15	    1200	     3.873
  79.500	        15	    1200	     3.873
  79.520	        12	    1200	     3.464
  79.540	        15	    1200	     3.873
  79.560	        26	    1200	     5.099
  79.580	        15	    1200	     3.873
  79.600	        16	    1200	     4.000
  79.620	        25	    1200	     5.000
  79.640	        12	    1200	     3.464
  79.660	        17	    1200	     4.123
  79.680	        28	    1200	     5.292
  79.700	        21	    1200	     4.583
  79.720	        18	    1200	     4.243
  79.740	        26	    1200	     5.099
  79.760	        10	    1200	     3.162
  79.780	        18	    1200	     4.243
  79.800	        13	    1200	     3.606
  79.820	        23	    1200	     4.796
  79.840	        16	    1200	     4.000
  79.860	        21	    1200	     4.583
  79.880	        15	    1200	     3.873
  79.900	        20	    1200	     4.472
  79.920	        27	    1200	     5.196
  79.940	        17	    1200	     4.123
  79.960	        22	    1200	     4.690
  79.980	        25	    1200	     5.000
  80.000	        22	    1200	     4.690
  80.020	        25	    1200	     5.000
  80.040	        29	    1200	     5.385
  80.060	        19	    1200	     4.359
  80.080	        17	    1200	     4.123
  80.100	        26	    1200	     5.099
  80.120	        18	    1200	     4.243
  80.140	        18	    1200	     4.243
  80.160	        25	    1200	     5.000
  80.180	        20	    1200	     4.472
  80.200	        15	    1200	     3.873
  80.220	        20	    1200	     4.472
  80.240	        19	    1200	     4.359
  80.260	        17	    1200	     4.123
  80.280	        25	    1200	     5.000
  80.300	        17	    1200	     4.123
  80.320	        22	    1200	     4.690
  80.340	        29	    1200	     5.385
  80.360	        28	    1200	     5.292
  80.380	        15	    1200	     3.873
  80.400	        13	    1200	     3.606
  80.420	        15	    1200	     3.873
  80.440	        23	    1200	     4.796
  80.460	        22	    1200	     4.690
  80.480	        13	    1200	     3.606
  80.500	        16	    1200	     4.000
  80.520	        21	    1200	     4.583
  80.540	        10	    1200	     3.162
  80.560	        17	    1200	     4.123
  80.580	        17	    1200	     4.123
  80.600	        28	    1200	     5.292
  80.620	        25	    1200	     5.000
  80.640	        22	    1200	     4.690
  80.660	        29	    1200	     5.385
  80.680	        23	    1200	     4.796
  80.700	        14	    1200	     3.742
  80.720	        20	    1200	     4.472
  80.740	        19	    1200	     4.359
  80.760	        18	    1200	     4.243
  80.780	        20	    1200	     4.472
  80.800	        27	    1200	     5.196
  80.820	        30	    1200	     5.477
  80.840	        27	    1200	     5.196
  80.860	        20	    1200	     4.472
  80.880	        27	    1200	     5.196
  80.900	        34	    1200	     5.831
  80.920	        20	    1200	     4.472
  80.940	        25	    1200	     5.000
  80.960	        21	    1200	     4.583
  80.980	        31	    1200	     5.568
  81.000	        38	    1200	     6.164
  81.020	        34	    1200	     5.831
  81.040	        27	    1200	     5.196
  81.060	        21	    1200	     4.583
  81.080	        38	    1200	     6.164
  81.100	        42	    1200	     6.481
  81.120	        34	    1200	     5.831
  81.140	        44	    1200	     6.633
  81.160	        38	    1200	     6.164
  81.180	        33	    1200	     5.745
  81.200	        35	    1200	     5.916
  81.220	        46	    1200	     6.782
  81.240	        44	    1200	     6.633
  81.260	        37	    1200	     6.083
  81.280	        45	    1200	     6.708
  81.300	        45	    1200	     6.708
  81.320	        40	    1200	     6.325
  81.340	        41	    1200	     6.403
  81.360	        40	    1200	     6.325
  81.380	        35	    1200	     5.916
  81.400	        46	    1200	     6.782
  81.420	        41	    1200	     6.403
  81.440	        44	    1200	     6.633
  81.460	        35	    1200	     5.916
  81.480	        49	    1200	     7.000
  81.500	        50	    1200	     7.071
  81.520	        45	    1200	     6.708
  81.540	        52	    1200	     7.211
  81.560	        39	    1200	     6.245
  81.580	        49	    1200	     7.000
  81.600	        56	    1200	     7.483
  81.620	        39	    1200	     6.245
  81.640	        44	    1200	     6.633
  81.660	        40	    1200	     6.325
  81.680	        45	    1200	     6.708
  81.700	        43	    1200	     6.557
  81.720	        44	    1200	     6.633
  81.740	        45	    1200	     6.708
  81.760	        49	    1200	     7.000
  81.780	        53	    1200	     7.280
  81.800	        48	    1200	     6.928
  81.820	        41	    1200	     6.403
  81.840	        30	    1200	     5.477
  81.860	        40	    1200	     6.325
  81.880	        33	    1200	     5.745
  81.900	        41	    1200	     6.403
  81.920	        39	    1200	     6.245
  81.940	        32	    1200	     5.657
  81.960	        52	    1200	     7.211
  81.980	        52	    1200	     7.211
  82.000	        43	    1200	     6.557
  82.020	        28	    1200	     5.292
  82.040	        44	    1200	     6.633
  82.060	        39	    1200	     6.245
  82.080	        38	    1200	     6.164
  82.100	        43	    1200	     6.557
  82.120	        40	    1200	     6.325
  82.140	        30	    1200	     5.477
  82.160	        44	    1200	     6.633
  82.180	        34	    1200	     5.831
  82.200	        35	    1200	     5.916
  82.220	        46	    1200	     6.782
  82.240	        40	    1200	     6.325
  82.260	        33	    1200	     5.745
  82.280	        33	    1200	     5.745
  82.300	        41	    1200	     6.403
  82.320	        43	    1200	     6.557
  82.340	        48	    1200	     6.928
  82.360	        46	    1200	     6.782
  82.380	        50	    1200	     7.071
  82.400	        37	    1200	     6.083
  82.420	        33	    1200	     5.745
  82.440	        52	    1200	     7.211
  82.460	        52	    1200	     7.211
  82.480	        37	    1200	     6.083
  82.500	        50	    1200	     7.071
  82.520	        41	    1200	     6.403
  82.540	        37	    1200	     6.083
  82.560	        41	    1200	     6.403
  82.580	        28	    1200	     5.292
  82.600	        31	    1200	     5.568
  82.620	        41	    1200	     6.403
  82.640	        37	    1200	     6.083
  82.660	        40	    1200	     6.325
  82.680	        39	    1200	     6.245
  82.700	        35	    1200	     5.916
  82.720	        29	    1200	     5.385
  82.740	        26	    1200	     5.099
  82.760	        46	    1200	     6.782
  82.780	        33	    1200	     5.745
  82.800	        37	    1200	     6.083
  82.820	        28	    1200	     5.292
  82.840	        39	    1200	     6.245
  82.860	        21	    1200	     4.583
  82.880	        23	    1200	     4.796
  82.900	        29	    1200	     5.385
  82.920	        27	    1200	     5.196
  82.940	        24	    1200	     4.899
  82.960	        31	    1200	     5.568
  82.980	        30	    1200	     5.477
  83.000	        24	    1200	     4.899
  83.020	        22	    1200	     4.690
  83.040	        13	    1200	     3.606
  83.060	        14	    1200	     3.742
  83.080	        22	    1200	     4.690
  83.100	        25	    1200	     5.000
  83.120	        19	    1200	     4.359
  83.140	        26	    1200	     5.099
  83.160	        23	    1200	     4.796
  83.180	        13	    1200	     3.606
  83.200	        22	    1200	     4.690
  83.220	        16	    1200	     4.000
  83.240	        20	    1200	     4.472
  83.260	        16	    1200	     4.000
  83.280	        14	    1200	     3.742
  83.300	         9	    1200	     3.000
  83.320	        24	    1200	     4.899
  83.340	        21	    1200	     4.583
  83.360	        12	    1200	     3.464
  83.380	        23	    1200	     4.796
  83.400	        17	    1200	     4.123
  83.420	        22	    1200	     4.690
  83.440	        22	    1200	     4.690
  83.460	        20	    1200	     4.472
  83.480	         9	    1200	     3.000
  83.500	        22	    1200	     4.690
  83.520	        14	    1200	     3.742
  83.540	        14	    1200	     3.742
  83.560	        26	    1200	     5.099
  83.580	        14	    1200	     3.742
  83.600	        20	    1200	     4.472
  83.620	        22	    1200	     4.690
  83.640	        13	    1200	     3.606
  83.660	        16	    1200	     4.000
  83.680	        23	    1200	     4.796
  83.700	        20	    1200	     4.472
  83.720	        15	    1200	     3.873
  83.740	        21	    1200	     4.583
  83.760	        14	    1200	     3.742
  83.780	        14	    1200	     3.742
  83.800	        20	    1200	     4.472
  83.820	        20	    1200	     4.472
  83.840	        18	    1200	     4.243
  83.860	        11	    1200	     3.317
  83.880	        14	    1200	     3.742
  83.900	        14	    1200	     3.742
  83.920	        20	    1200	     4.472
  83.940	        21	    1200	     4.583
  83.960	        22	    1200	     4.690
  83.980	        13	    1200	     3.606
  84.000	        21	    1200	     4.583
  84.020	        14	    1200	     3.742
  84.040	        16	    1200	     4.000
  84.060	        21	    1200	     4.583
  84.080	        19	    1200	     4.359
  84.100	        21	    1200	     4.583
  84.120	        22	    1200	     4.690
  84.140	        25	    1200	     5.000
  84.160	        26	    1200	     5.099
  84.180	        20	    1200	     4.472
  84.200	        13	    1200	     3.606
  84.220	        19	    1200	     4.359
  84.240	        21	    1200	     4.583
  84.260	        25	    1200	     5.000
  84.280	        32	    1200	     5.657
  84.300	        24	    1200	     4.899
  84.320	        36	    1200	     6.000
  84.340	        28	    1200	     5.292
  84.360	        27	    1200	     5.196
  84.380	        30	    1200	     5.477
  84.400	        28	    1200	     5.292
  84.420	        26	    1200	     5.099
  84.440	        28	    1200	     5.292
  84.460	        19	    1200	     4.359
  84.480	        33	    1200	     5.745
  84.500	        27	    1200	     5.196
  84.520	        28	    1200	     5.292
  84.540	        24	    1200	     4.899
  84.560	        33	    1200	     5.745
  84.580	        28	    1200	     5.292
  84.600	        29	    1200	     5.385
  84.620	        38	    1200	     6.164
  84.640	        29	    1200	     5.385
  84.660	        28	    1200	     5.292
  84.680	        17	    1200	     4.123
  84.700	        26	    1200	     5.099
  84.720	        20	    1200	     4.472
  84.740	        20	    1200	     4.472
  84.760	        22	    1200	     4.690
  84.780	        21	    1200	     4.583
  84.800	        26	    1200	     5.099
  84.820	        25	    1200	     5.000
  84.840	        19	    1200	     4.359
  84.860	        22	    1200	     4.690
  84.880	        19	    1200	     4.359
  84.900	        20	    1200	     4.472
  84.920	        22	    1200	     4.690
  84.940	        23	    1200	     4.796
  84.960	        21	    1200	     4.583
  84.980	        28	    1200	     5.292
  85.000	        29	    1200	     5.385
  85.020	        28	    1200	     5.292
  85.040	        17	    1200	     4.123
  85.060	        28	    1200	     5.292
  85.080	        21	    1200	     4.583
  85.100	        21	    1200	     4.583
  85.120	        10	    1200	     3.162
  85.140	        23	    1200	     4.796
  85.160	        18	    1200	     4.243
  85.180	        24	    1200	     4.899
  85.200	        25	    1200	     5.000
  85.220	        25	    1200	     5.000
  85.240	        27	    1200	     5.196
  85.260	        33	    1200	     5.745
  85.280	        26	    1200	     5.099
  85.300	        29	    1200	     5.385
  85.320	        20	    1200	     4.472
  85.340	        34	    1200	     5.831
  85.360	        20	    1200	     4.472
  85.380	        30	    1200	     5.477
  85.400	        30	    1200	     5.477
  85.420	        31	    1200	     5.568
  85.440	        38	    1200	     6.164
  85.460	        33	    1200	     5.745
  85.480	        44	    1200	     6.633
  85.500	        38	    1200	     6.164
  85.520	        31	    1200	     5.568
  85.540	        33	    1200	     5.745
  85.560	        39	    1200	     6.245
  85.580	        33	    1200	     5.745
  85.600	        46	    1200	     6.782
  85.620	        40	    1200	     6.325
  85.640	        36	    1200	     6.000
  85.660	        42	    1200	     6.481
  85.680	        45	    1200	     6.708
  85.700	        43	    1200	     6.557
  85.720	        51	    1200	     7.141
  85.740	        56	    1200	     7.483
  85.760	        56	    1200	     7.483
  85.780	        49	    1200	     7.000
  85.800	        65	    1200	     8.062
  85.820	        72	    1200	     8.485
  85.840	        43	    1200	     6.557
  85.860	        70	    1200	     8.367
  85.880	        57	    1200	     7.550
  85.900	        56	    1200	     7.483
  85.920	        72	    1200	     8.485
  85.940	        65	    1200	     8.062
  85.960	        70	    1200	     8.367
  85.980	        62	    1200	     7.874
  86.000	        51	    1200	     7.141
  86.020	        46	    1200	     6.782
  86.040	        49	    1200	     7.000
  86.060	        60	    1200	     7.746
  86.080	        53	    1200	     7.280
  86.100	        46	    1200	     6.782
  86.120	        51	    1200	     7.141
  86.140	        43	    1200	     6.557
  86.160	        47	    1200	     6.856
  86.180	        44	    1200	     6.633
  86.200	        37	    1200	     6.083
  86.220	        41	    1200	     6.403
  86.240	        42	    1200	     6.481
  86.260	        39	    1200	     6.245
  86.280	        40	    1200	     6.325
  86.300	        30	    1200	     5.477
  86.320	        38	    1200	     6.164
  86.340	        25	    1200	     5.000
  86.360	        33	    1200	     5.745
  86.380	        34	    1200	     5.831
  86.400	        40	    1200	     6.325
  86.420	        26	    1200	     5.099
  86.440	        26	    1200	     5.099
  86.460	        27	    1200	     5.196
  86.480	        23	    1200	     4.796
  86.500	        17	    1200	     4.123
  86.520	        23	    1200	     4.796
  86.540	        22	    1200	     4.690
  86.560	        27	    1200	     5.196
  86.580	        27	    1200	     5.196
  86.600	        17	    1200	     4.123
  86.620	        20	    1200	     4.472
  86.640	        23	    1200	     4.796
  86.660	        19	    1200	     4.359
  86.680	        16	    1200	     4.000
  86.700	        23	    1200	     4.796
  86.720	        19	    1200	     4.359
  86.740	        21	    1200	     4.583
  86.760	        19	    1200	     4.359
  86.780	        23	    1200	     4.796
  86.800	        25	    1200	     5.000
  86.820	        22	    1200	     4.690
  86.840	        24	    1200	     4.899
  86.860	        22	    1200	     4.690
  86.880	        29	    1200	     5.385
  86.900	        12	    1200	     3.464
  86.920	        18	    1200	     4.243
  86.940	        21	    1200	     4.583
  86.960	        12	    1200	     3.464
  86.980	        19	    1200	     4.359
  87.000	        17	    1200	     4.123
  87.020	        29	    1200	     5.385
  87.040	        14	    1200	     3.742
  87.060	        20	    1200	     4.472
  87.080	        19	    1200	     4.359
  87.100	        15	    1200	     3.873
  87.120	        13	    1200	     3.606
  87.140	        19	    1200	     4.359
  87.160	        19	    1200	     4.359
  87.180	        17	    1200	     4.123
  87.200	        20	    1200	     4.472
  87.220	        22	    1200	     4.690
  87.240	        21	    1200	     4.583
  87.260	        10	    1200	     3.162
  87.280	        14	    1200	     3.742
  87.300	        16	    1200	     4.000
  87.320	        15	    1200	     3.873
  87.340	        22	    1200	     4.690
  87.360	        21	    1200	     4.583
  87.380	        19	    1200	     4.359
  87.400	        20	    1200	     4.472
  87.420	        15	    1200	     3.873
  87.440	        21	    1200	     4.583
  87.460	        17	    1200	     4.123
  87.480	        21	    1200	     4.583
  87.500	        17	    1200	     4.123
  87.520	        22	    1200	     4.690
  87.540	        15	    1200	     3.873
  87.560	        22	    1200	     4.690
  87.580	        14	    1200	     3.742
  87.600	        12	    1200	     3.464
  87.620	        18	    1200	     4.243
  87.640	        19	    1200	     4.359
  87.660	        16	    1200	     4.000
  87.680	        25	    1200	     5.000
  87.700	        19	    1200	     4.359
  87.720	        18	    1200	     4.243
  87.740	        21	    1200	     4.583
  87.760	        12	    1200	     3.464
  87.780	        23	    1200	     4.796
  87.800	        15	    1200	     3.873
  87.820	        21	    1200	     4.583
  87.840	        18	    1200	     4.243
  87.860	        15	    1200	     3.873
  87.880	        24	    1200	     4.899
  87.900	        23	    1200	     4.796
  87.920	        24	    1200	     4.899
  87.940	        15	    1200	     3.873
  87.960	        16	    1200	     4.000
  87.980	        13	    1200	     3.606
  88.000	        19	    1200	     4.359
  88.020	        25	    1200	     5.000
  88.040	        18	    1200	     4.243
  88.060	        15	    1200	     3.873
  88.080	        24	    1200	     4.899
  88.100	        14	    1200	     3.742
  88.120	        16	    1200	     4.000
  88.140	        20	    1200	     4.472
  88.160	        31	    1200	     5.568
  88.180	        16	    1200	     4.000
  88.200	        26	    1200	     5.099
  88.220	        28	    1200	     5.292
  88.240	        23	    1200	     4.796
  88.260	        24	    1200	     4.899
  88.280	        21	    1200	     4.583
  88.300	        14	    1200	     3.742
  88.320	        17	    1200	     4.123
  88.340	        13	    1200	     3.606
  88.360	        23	    1200	     4.796
  88.380	        23	    1200	     4.796
  88.400	        23	    1200	     4.796
  88.420	        23	    1200	     4.796
  88.440	        17	    1200	     4.123
  88.460	        22	    1200	     4.690
  88.480	        20	    1200	     4.472
  88.500	        23	    1200	     4.796
  88.520	        20	    1200	     4.472
  88.540	        17	    1200	     4.123
  88.560	        18	    1200	     4.243
  88.580	        13	    1200	     3.606
  88.600	        15	    1200	     3.873
  88.620	        16	    1200	     4.000
  88.640	        19	    1200	     4.359
  88.660	        13	    1200	     3.606
  88.680	        16	    1200	     4.000
  88.700	        22	    1200	     4.690
  88.720	        23	    1200	     4.796
  88.740	        26	    1200	     5.099
  88.760	        15	    1200	     3.873
  88.780	        15	    1200	     3.873
  88.800	        22	    1200	     4.690
  88.820	        24	    1200	     4.899
  88.840	        13	    1200	     3.606
  88.860	        20	    1200	     4.472
  88.880	        16	    1200	     4.000
  88.900	        12	    1200	     3.464
  88.920	        21	    1200	     4.583
  88.940	         9	    1200	     3.000
  88.960	        18	    1200	     4.243
  88.980	        14	    1200	     3.742
  89.000	        17	    1200	     4.123
  89.020	        12	    1200	     3.464
  89.040	        21	    1200	     4.583
  89.060	        13	    1200	     3.606
  89.080	        19	    1200	     4.359
  89.100	        21	    1200	     4.583
  89.120	        15	    1200	     3.873
  89.140	        11	    1200	     3.317
  89.160	        16	    1200	     4.000
  89.180	        16	    1200	     4.000
  89.200	        16	    1200	     4.000
  89.220	         9	    1200	     3.000
  89.240	        17	    1200	     4.123
  89.260	        15	    1200	     3.873
  89.280	        16	    1200	     4.000
  89.300	        17	    1200	     4.123
  89.320	        19	    1200	     4.359
  89.340	        21	    1200	     4.583
  89.360	        28	    1200	     5.292
  89.380	        17	    1200	     4.123
  89.400	        13	    1200	     3.606
  89.420	        17	    1200	     4.123
  89.440	         6	    1200	     2.449
  89.460	        12	    1200	     3.464
  89.480	        22	    1200	     4.690
  89.500	        21	    1200	     4.583
  89.520	        21	    1200	     4.583
  89.540	        18	    1200	     4.243
  89.560	        16	    1200	     4.000
  89.580	        19	    1200	     4.359
  89.600	        20	    1200	     4.472
  89.620	        13	    1200	     3.606
  89.640	        20	    1200	     4.472
  89.660	        12	    1200	     3.464
  89.680	        33	    1200	     5.745
  89.700	        30	    1200	     5.477
  89.720	        13	    1200	     3.606
  89.740	        13	    1200	     3.606
  89.760	        19	    1200	     4.359
  89.780	        18	    1200	     4.243
  89.800	        22	    1200	     4.690
  89.820	        24	    1200	     4.899
  89.840	        12	    1200	     3.464
  89.860	        18	    1200	     4.243
  89.880	        19	    1200	     4.359
  89.900	        20	    1200	     4.472
  89.920	        20	    1200	     4.472
  89.940	        21	    1200	     4.583
  89.960	        24	    1200	     4.899
  89.980	        27	    1200	     5.196
  90.000	        19	    1200	     4.359
